EEG_1,EEG_2,EEG_3,EEG_4,EEG_5,EEG_6,EEG_7,EEG_8
0.019795219669276793,0.021123928574626794,-0.007925031979603678,-0.026963394285232267,-0.0015294460524693278,0.00551723889899445,-0.021873284547099445,-0.015301472501091875
0.2183949284308724,0.560360100347478,-0.26801884686971106,0.24019299775958974,0.5810749533901558,-0.2975019854982573,0.3133071271155633,0.32843002144512135
0.3736480592825026,0.894583598367077,-0.47725572939852945,0.46149715220716353,0.9343851224754728,-0.5834594877391507,0.5358488234341093,0.6105986857455008
0.46065265678407447,0.9054590389419793,-0.598660097189231,0.5948952922442852,0.9160920383833597,-0.8232089718078428,0.5843201532057539,0.7758486096629278
0.48322624631160926,0.60792354327719,-0.6181103961747468,0.611303296398417,0.5290757869007423,-0.9758141470498028,0.47461048389771976,0.7843880264550872
0.4726929505216918,0.1359154365695256,-0.5450454487835049,0.5020172162343356,-0.07838097311792427,-1.0027267929627677,0.2841579988189423,0.6231528264261649
0.4726511545906342,-0.321872274616048,-0.40749281399988846,0.2863529447454073,-0.6708898376827888,-0.888646654578393,0.10798906161928808,0.31626915518428983
0.5151742843954676,-0.6033861311194896,-0.24357984799884963,0.015398224863752592,-1.0203820027937893,-0.6552469900065875,0.011964310554316319,-0.07276513779035829
0.6001603246365667,-0.6349005675665352,-0.09123668745914153,-0.23510537366259707,-0.9968835087829088,-0.3573052416170025,0.006721237230322622,-0.45396847504829807
0.6899429517886937,-0.4490622134689462,0.020856841390484732,-0.3868637035461512,-0.616859928377749,-0.061644199933495694,0.05253771801293419,-0.7377930836315824
0.7239593061043637,-0.15684366806957878,0.07766783767180548,-0.3910244926977126,-0.02988487186245928,0.1793824957662884,0.08937767695454081,-0.8654507624807792
0.6468249583603984,0.10910972058996721,0.0775051275981713,-0.2550866291647764,0.5479682684309058,0.3441430744997253,0.07503898724792471,-0.8282753562750459
0.43535399989936163,0.2520068087546541,0.030996698295723667,-0.047124483923025956,0.9227885211115522,0.439051346432445,0.01120056038174756,-0.666654673364519
0.11126660651116643,0.24453819007958824,-0.03768175409975959,0.13119149950220263,0.9943516553183656,0.4818590935995234,-0.057036374691825806,-0.44929169031752403
-0.2653316838221525,0.12746009411353065,-0.09052100656321314,0.19378508683531498,0.7820413978902755,0.485259510393917,-0.06923664129849415,-0.2431651309852249
-0.6171680590311164,-0.020996113826781817,-0.08372408448529683,0.1170288241402813,0.4001581630338914,0.4527506677540199,0.009282316015716613,-0.08846633435520126
-0.8753446773557715,-0.12674594754437327,0.01291098974148764,-0.042959952883401396,0.00047400279406419103,0.386909878034795,0.15766718626177648,0.011026992744938558
-0.9986279336711393,-0.1519321822295346,0.19329568973972486,-0.17610375375004164,-0.2894267106063581,0.29953145993127533,0.3015279071772014,0.08064784033575906
-0.9807816063888705,-0.10444776088523275,0.40495512304361486,-0.17732328879349044,-0.4079000841230173,0.21249074174637483,0.3495077010638076,0.1572687133334612
-0.8464837102127358,-0.024775985267013207,0.5636879720124115,-0.00864113498376389,-0.37031531669091355,0.1472729919092689,0.24480366661057304,0.2705929619423492
-0.6397272871465987,0.03911663313422277,0.5906567296055509,0.2702980037352278,-0.25140796990306946,0.11126569143592445,0.0001187667273477509,0.4293382799947231
-0.4088611444302099,0.05507894401860639,0.4539001307656871,0.5232657710829169,-0.148247228265909,0.09176281968211078,-0.30630907417913694,0.6141864293998308
-0.19252447952294513,0.019221898498658557,0.19025221565803235,0.6025886099016324,-0.13708776547743154,0.06272398285057838,-0.5707483496648601,0.7783430610737418
-0.011202015605272514,-0.044499959124322,-0.10744313226575246,0.4254679070858039,-0.23987984868868256,0.00026034455142082727,-0.7144033282526207,0.8580098686255482
0.13269202227106439,-0.09516906812989502,-0.3333447410816175,0.02067669868526276,-0.4145673337144344,-0.1024724582340312,-0.7144161300304535,0.7942559342549117
0.24779012014478347,-0.09249926500785592,-0.41915143429468654,-0.47916670997980354,-0.5741472307778831,-0.2293124908250564,-0.6012316501209918,0.5615501329093688
0.3447319218843284,-0.016549424741848243,-0.364329263783442,-0.8944929054560693,-0.625720877424407,-0.34715804814312257,-0.4302669009284815,0.1900521409354693
0.4293590555354329,0.1172818231317538,-0.22934652844645986,-1.0748666423215258,-0.5113688879135513,-0.4206971881397073,-0.24914682082407583,-0.2332146522148904
0.4994274744594957,0.25692089786834993,-0.09623758964476,-0.9584099129592748,-0.23378111928127074,-0.42780708690456243,-0.07991187178317193,-0.5904402136883081
0.5440926000947834,0.33229801423406524,-0.020029757691802305,-0.591027194580655,0.14178608530487927,-0.36767916409698903,0.07707011260978468,-0.7776257165512552
0.5456612626390648,0.29036704501528143,-0.0005443551575691078,-0.1019099788466421,0.5087605926621888,-0.2583699238764752,0.22516127167694866,-0.7476211735814691
0.4847044172881221,0.12971262232947997,0.008304000796315235,0.351036124558447,0.7571040895243136,-0.1262619558778839,0.355163750355357,-0.5303578687621369
0.34971093115171115,-0.08764376023581863,0.058787851477097794,0.6425303829832851,0.8158860252811095,0.0062706497060210755,0.44365681168899895,-0.2190427830230616
0.1487781601439686,-0.26003490566544696,0.16621990035467862,0.7233152561663071,0.6842086930851955,0.12807839785454866,0.4672979669589519,0.07175524282198782
-0.08379239756790141,-0.29699012245160045,0.29106887809506266,0.6284611395352904,0.43484802373993103,0.23750275095386278,0.4219166918244534,0.25481869411373254
-0.29282504074956384,-0.169349826520142,0.3578595757323506,0.4488007464629078,0.1846505735137205,0.33348538866830113,0.33123286496345833,0.30083159646485186
-0.4199921980059869,0.07174147606458754,0.2987095435867516,0.2809326111016585,0.04166754111729015,0.40590074171977786,0.23773967797795145,0.23689223580586025
-0.42698958087948896,0.31936258957543207,0.09487094248669765,0.1815631202059352,0.05290167933843012,0.43211228199661367,0.18134199699115564,0.11804560350410047
-0.31373295603037765,0.46401496440128764,-0.20727138281117755,0.14914163387039597,0.1794659588991323,0.38351625245759685,0.17923263218664906,-0.008075210325966002
-0.12269381638234664,0.4437373508371075,-0.5128217803956974,0.14017049619162647,0.31418147605822794,0.2406568092046888,0.21824386694051529,-0.12140643591301443
0.07421855172459106,0.2647485037470722,-0.7172305113127764,0.1074094656693249,0.3351192730881415,0.010579026988217147,0.26236832985873576,-0.2244767705025689
0.20269186661245714,-0.012267136482354212,-0.7481409748426656,0.03451650250989713,0.1688306665792582,-0.2626144528392208,0.27024833971431145,-0.3205458108850433
0.21672587773969254,-0.3053069100890606,-0.5919679415740591,-0.055162874196031136,-0.16926510005128492,-0.5023072482141072,0.21394754431843246,-0.3945359155250188
0.11949442942463752,-0.5431594540861716,-0.2951511446639751,-0.12026132986797054,-0.5779366395485787,-0.6223398483499867,0.09114890056432971,-0.4129821268565356
-0.03626519691164181,-0.6831012768667616,0.05763449819726076,-0.13707669731029812,-0.9138917634275906,-0.5625704730914172,-0.07356475325561909,-0.344133554296438
-0.1700845577143682,-0.7116146021482385,0.37548414530809004,-0.12281690047867277,-1.0532249906083058,-0.3215953058411516,-0.23831354916367045,-0.18406568507857327
-0.20926431304853033,-0.6341352233412141,0.5886827910485535,-0.12813900692510882,-0.9415663278711685,0.03159946292003937,-0.36059137203792774,0.030515551537542825
-0.12302577852816142,-0.46433074356463594,0.6634752992496379,-0.20157018748174912,-0.6127484305711448,0.37702884879830983,-0.4147207906336309,0.2339954513993393
0.059875128708633076,-0.22203776037746048,0.6043944696871073,-0.34830886041406045,-0.17192882152277508,0.5886394776430759,-0.4030431069901327,0.3629294595457502
0.25907342596244043,0.05945787058725901,0.4478521773557474,-0.5124210776988573,0.2461797104906616,0.5856112197199512,-0.3554232241609802,0.38791231806869225
0.37433056208633486,0.32722948455663636,0.24963965249631256,-0.5991904932906686,0.525400387507553,0.36673126429877123,-0.3161035962738331,0.32718551948734464
0.32863990674252513,0.5173136628259698,0.06777155710316586,-0.5286656454112665,0.6043678348961556,0.01217965986846009,-0.32295120262977567,0.2348631709769001
0.10476574968225508,0.580642013336232,-0.05621371425960567,-0.2883253705399028,0.4902657880018131,-0.3477282144062967,-0.3882854614012308,0.17115648739203837
-0.24080920024876654,0.511202941794742,-0.11115833104464692,0.05022301848309197,0.24939167763640144,-0.5828128104752713,-0.48954015354633906,0.17030192890131116
-0.5940029424674823,0.3546291460925208,-0.1182825149070982,0.3638280408850438,-0.018890887241978686,-0.6114889751668109,-0.5729057037392793,0.22224903938481186
-0.8241433379948382,0.18788838643706882,-0.11814260448751625,0.5406770716246232,-0.21593876130484935,-0.4289721852102308,-0.5686277315508945,0.2779758538440429
-0.8333223955708985,0.08167968600103344,-0.1467102860580513,0.5350774186508399,-0.2761919993519946,-0.10556745752428472,-0.4151813750362244,0.27695436157987097
-0.5941510631192776,0.06800449317603101,-0.21175063455457802,0.3830060879727698,-0.18829988465103237,0.2430982247909733,-0.08764943214557433,0.1827254439052811
-0.16219802725297514,0.12927377301389745,-0.2831986322941495,0.1743441597470236,0.003830655412566605,0.5015172420053696,0.37950095686014657,0.0063122084112098705
0.3402886236578996,0.21119855915757316,-0.3057790993403162,0.0037046635529983715,0.22282962275054333,0.5974226372613416,0.8888604914101871,-0.19701254478310468
0.7641569111375283,0.2509407889309792,-0.22975871911654785,-0.07050751399797114,0.39416198083788634,0.5258431609560253,1.304363802240796,-0.3564313212963571
0.984740255667886,0.20752876128310457,-0.043895244082514225,-0.04102646021651908,0.4785130069645702,0.3446725974222342,1.4978009407461608,-0.422689052255712
0.947310368709144,0.08154404592212133,0.20822884210349776,0.05814269644646359,0.48180845545011797,0.1437378164389245,1.3975614259204927,-0.3910556742631423
0.6877502002142672,-0.08467472098066992,0.4388634064725339,0.17329261038041374,0.4376556734896963,0.0013294682431818656,1.0162842848343239,-0.29668097654538605
0.31713457038038256,-0.2267645354106796,0.5496134078025643,0.25167290807261267,0.3753438952995008,-0.05096754523822494,0.4451674672536616,-0.1870319468610502
-0.02560406766262445,-0.28950423072589315,0.47236045742636795,0.2560451476180349,0.29634967505970133,-0.03759697924241338,-0.1795175261803672,-0.09128711497411056
-0.23258302329104139,-0.25563055414516056,0.20038369925439017,0.1735137986147619,0.17588959225079012,-0.018492776092125632,-0.7199660461087479,-0.007734788039820897
-0.26997173825743515,-0.15852473371734038,-0.2012435311008827,0.019431438265186285,-0.012186078188575283,-0.05144205002818649,-1.0725909811169074,0.08377544219391524
-0.18505766101352136,-0.070074129686554,-0.609382755741991,-0.16467875444534735,-0.26567431142226827,-0.1591371543945581,-1.1868353118892663,0.19530116737352926
-0.07572763766261381,-0.06532234536653224,-0.8787958301107585,-0.32089903420013083,-0.5411020619096937,-0.31783970844657183,-1.0676694254724617,0.309658244643654
-0.039251433496574006,-0.17905185705074997,-0.892924909423259,-0.3924236701946737,-0.7669395389300806,-0.47068064497084594,-0.7675762910731148,0.37929398549981136
-0.12586820662866505,-0.3783288963450207,-0.6142031557831852,-0.34509383566761875,-0.8743047240329606,-0.5558643055016209,-0.3729653957021392,0.34766595279405405
-0.3180094796221216,-0.5700783970034755,-0.11245197200318259,-0.1850995555782927,-0.826074752212363,-0.5343546633931522,0.014051387163844912,0.1832237182247603
-0.541905500312101,-0.6438984196990155,0.4471651133950044,0.03648493042835054,-0.6289204587008149,-0.40374239672917955,0.29929111598631963,-0.09195699794575737
-0.702776197011286,-0.528981438032954,0.8600282131149565,0.23789054542483715,-0.325717373396256,-0.1936377205188869,0.4226518477721636,-0.3966992841229257
-0.7253732642029481,-0.23402936464508298,0.9632815729012719,0.33668501394531486,0.02266918449727781,0.05119034541492015,0.3777294656650971,-0.6161504872107624
-0.5819367790161906,0.15280361432893025,0.7072465317828245,0.2838102932681419,0.3541636158329562,0.2875713122116028,0.21375911395612743,-0.6498595642147746
-0.2982159487108782,0.5046102908470403,0.1820808984629372,0.08599859291537153,0.6139397305466472,0.4809315272032875,0.01525347202724172,-0.4608419986288984
0.06050193544013445,0.7143467001816463,-0.4154492379101304,-0.19425438759580724,0.7565023766469406,0.6021744997366699,-0.1328997830547225,-0.10081912480528551
0.4137455845733707,0.7391103793809644,-0.8607347675739601,-0.4609582652037481,0.7495005911258563,0.6233303245884197,-0.17808264403852125,0.3032721939310235
0.6895823057839413,0.608494503209134,-0.9895254412196519,-0.618846795952383,0.5852109360963342,0.5226983200663432,-0.11528712478802228,0.5977650992157697
0.8401019968545596,0.398164841232088,-0.757676309013994,-0.6058606935671406,0.29548083541196374,0.30154664947527804,0.019231443593206193,0.6650166056214699
0.8468609823789107,0.18834539510130993,-0.25080983923463257,-0.4135415836057869,-0.043387278948316226,0.0012552164336493996,0.1692649711020579,0.47354263884073605
0.7197784048676582,0.03060632049628917,0.35520075776293175,-0.09083536152313053,-0.3278938435560497,-0.295877396415823,0.283144768148307,0.09438710236127203
0.4939187889524749,-0.06310542406790491,0.8637859474408769,0.2689193055921572,-0.46578261267217685,-0.4906343239403889,0.3313515598474551,-0.3242262000656297
0.22412178332085933,-0.10944885096287814,1.128966773063379,0.5556564293413893,-0.4192035533049566,-0.5079129469309283,0.312592922923977,-0.6152358564038554
-0.027152697651083267,-0.1323397596992501,1.1014040413976818,0.6791711184043434,-0.22895765661092893,-0.3348259708737006,0.2488350780032164,-0.6599945375704394
-0.21045712176590367,-0.14650890172969602,0.8333948479137052,0.6031424910514604,-0.002199593894307659,-0.0351833249767091,0.17261544423892383,-0.434493391212682
-0.3095873155583526,-0.15497943395314395,0.4440412078204534,0.36185412695764035,0.1366287265286073,0.26995840216554307,0.11153492773271582,-0.01431525684688227
-0.34566296721917594,-0.15761045131421758,0.062084427043922905,0.04969957947393225,0.1102850378461097,0.44998314247419896,0.07606822605950284,0.46065076241958114
-0.3575632134631429,-0.15976403374332496,-0.22720107431894615,-0.214450731195632,-0.06622808668953252,0.4208065631248328,0.05596407994261819,0.8410747838273226
-0.3704574202489121,-0.17216356850302997,-0.4070282012457752,-0.3338763790276083,-0.28861744340914547,0.18415354268392878,0.026310839475763688,1.0163977068637635
-0.37624365220317424,-0.20197848452560127,-0.5156674862421856,-0.27203383170025786,-0.4165102636725891,-0.16869987973583667,-0.04045901038880394,0.9400429651456381
-0.3417303935374023,-0.2424524198797544,-0.6043528793598225,-0.06585939597520746,-0.34847145221793224,-0.49196887381440774,-0.16191405627548114,0.6310140527675281
-0.23881664233116864,-0.26902889267212554,-0.6927076971952478,0.19108708926071669,-0.07644739779987653,-0.645356118575048,-0.33559880051590135,0.16125964192938874
-0.07458173731324326,-0.24579874058870932,-0.7494961162703185,0.3879874580264879,0.30965333864816114,-0.5536864429644874,-0.5328328895903082,-0.36239958193349653
0.09974121935314295,-0.14100488848207912,-0.7109626133609075,0.44186159476330794,0.6659994109561345,-0.23969602445151095,-0.6986648747420661,-0.8196699952862614
0.20761569043293762,0.05421547882066569,-0.5259397223333566,0.3303166468610677,0.8601044261047621,0.18524902584268368,-0.7629440447716196,-1.102990912641492
0.1850433280678366,0.3128786696738419,-0.20048461852386307,0.09938214857598214,0.8238991544775666,0.5676305919435212,-0.6654333029896338,-1.1459779178798832
0.019290878928233255,0.5734319961718995,0.1858391464278509,-0.15692646139399566,0.5738084751282944,0.7727679290326939,-0.38853455201882936,-0.9445795071032749
-0.23134104765703875,0.7574743916960401,0.5049071697919297,-0.33793863532846014,0.19565684314056966,0.7332287875958072,0.019147326781659497,-0.5597561374302886
-0.4507821388917985,0.7970075865221654,0.6363691382627362,-0.38162004676195105,-0.1939104292198733,0.4674187062799716,0.4466769192330662,-0.09719489917360422
-0.5121459075999749,0.6590020636702282,0.5269816708581523,-0.293129006005562,-0.49177807985417554,0.0662584618549987,0.758722399289416,0.329130020232623
-0.34075446589570413,0.3577486873662827,0.2211044819656243,-0.14164919928190528,-0.6413067064010938,-0.34271334198807085,0.8542817130701971,0.6338340957553368
0.038533688199271866,-0.04720149453366376,-0.15431331778364707,-0.02495258150487558,-0.642588434062702,-0.6394556085765156,0.7170490692899799,0.7810885593824122
0.4994321559390475,-0.4646779821495651,-0.4423436790684908,-0.01806152017995844,-0.5389068491317756,-0.7490696305225953,0.42858082811595755,0.78198532396078
0.8653224289032975,-0.7940484316350812,-0.5207976841562834,-0.13218532948507478,-0.3893373032531275,-0.6612084706755226,0.1337071239485517,0.673542033394386
0.9902511194753985,-0.9534376719200855,-0.3518167793189778,-0.30626743243775717,-0.24322214576379872,-0.4255854366741032,-0.02711287037500595,0.4939461170180153
0.8277889913574228,-0.9083394710182578,0.001820402063443373,-0.4373856432464515,-0.12819845934140583,-0.12648862047534074,0.013706589344004951,0.26875408774147924
0.45134460384646197,-0.6890467878078836,0.4001516058386399,-0.435628347151609,-0.05209215030522154,0.15232196326557249,0.21502020964970853,0.013783297285515196
0.016165587298548507,-0.3838575827367193,0.6828629553614592,-0.2743862932989731,-0.009832727185704488,0.3564652785915027,0.4427845693971908,-0.2515456301301424
-0.3156913541530088,-0.10414187475586088,0.7386432017457585,-0.00760565759550997,0.01258132370469995,0.4706143273545089,0.5331270683336861,-0.493617324434315
-0.4482484020519593,0.06557441079382158,0.5562014658251374,0.257038206704719,0.03653488476281472,0.5067699908872348,0.37524061361370215,-0.6672585945261547
-0.3866401510670574,0.10630476480031871,0.23009035485032867,0.4154261886931631,0.08543866309222731,0.4819517541116071,-0.025837564772768253,-0.7314569834543275
-0.22015128124674604,0.06892179659798875,-0.08498517348684718,0.42335800334395784,0.17301715846011856,0.4023015080703674,-0.5409535390859345,-0.6674741587173644
-0.0668084821197867,0.04072375573106841,-0.2502691385025151,0.3196127393891924,0.29101588124653227,0.26465407183361417,-0.9726593543932235,-0.48711158149628486
-0.011426207435175383,0.09415023260680483,-0.210669002385927,0.2007865983886189,0.40561752006078744,0.0727712711666367,-1.1504773320791135,-0.22749398586974967
-0.06858128182225674,0.24759661797882393,-0.01913203984843755,0.16100668469694424,0.4674572950264086,-0.14618546716824166,-1.0162384301486476,0.06129361193470141
-0.1857607614221632,0.45865683551594083,0.19393269705846336,0.23204438887748566,0.4322567883125715,-0.3403923224778536,-0.6519210092406506,0.32745592891888403
-0.2805875766561859,0.649259981888685,0.28915153660467463,0.36078979598104266,0.28335785556563386,-0.4520139546650535,-0.23291725493467227,0.5252073152292906
-0.2897647284918775,0.7451568064655274,0.1893043081837662,0.43909484814535193,0.046246855754644794,-0.44556440930753494,0.06748707294536316,0.6218707718925055
-0.20302961042271933,0.7083699222961148,-0.0820202729447884,0.3692123957183148,-0.21221994620198,-0.3283514250554375,0.16760040367438386,0.606219894768018
-0.0652202034616344,0.54906206980344,-0.4121889669246712,0.12644087693523315,-0.4023440616103285,-0.15076976999308117,0.10997093452203444,0.49473190149026297
0.05177458893094161,0.31551441332899843,-0.6546185827967294,-0.21788225197844593,-0.4440688303928186,0.01362394060754921,0.02148674732384846,0.32933300684513866
0.08931366608629503,0.07100378399193057,-0.6994285245436306,-0.5270291785971716,-0.30293545629517965,0.09899935345962613,0.02877653567013572,0.16304835587383923
0.032493251869048945,-0.12972088668266654,-0.5252803910551384,-0.6671366681597005,-0.014535575090850288,0.07641431040781685,0.18139840196317453,0.03760782854610286
-0.08313951011429739,-0.2551363468499808,-0.20804395642175114,-0.5765649503265774,0.3164530564576751,-0.031233080939313873,0.42718865593020444,-0.035592341922728095
-0.18926334526985317,-0.30102962802385713,0.11674906300892163,-0.29933988913558696,0.5483353246217971,-0.15716659057637217,0.650254761263407,-0.07880931574668494
-0.2167102628417583,-0.28708763695543094,0.3184384815056187,0.03515608823138325,0.557808832998862,-0.22119579478417556,0.744373204966038,-0.13102630990557226
-0.12722858408501436,-0.24850138545698433,0.33100319288825725,0.275867147732419,0.29783261866441074,-0.17034149207054483,0.6756244875871911,-0.21893415990881404
0.0675727416570422,-0.2228983671724422,0.17945474629271282,0.3244230590854857,-0.16865458835404196,-0.009427289458904203,0.49749536362927876,-0.33343742642410795
0.3071296933801636,-0.23435540479231937,-0.03851158125309378,0.18187933204273626,-0.6793906973029585,0.19660985474025577,0.31180431508957956,-0.42826695337187387
0.5023489082554331,-0.2807804763543857,-0.2042587084449695,-0.05639958485496295,-1.0303913450389404,0.3540257786071389,0.20150804228431451,-0.4445108350915824
0.5684355769094315,-0.3331616913359718,-0.23572552798849536,-0.25430141011112145,-1.0606373277857004,0.3913093344952775,0.17807331426027317,-0.34781853662911133
0.45898412800326044,-0.35092393409902467,-0.12204768807032991,-0.30713218449756385,-0.7268490138181707,0.30144460209905344,0.1764987321365951,-0.15541971545649555
0.18969007385248654,-0.30785058312967717,0.07921682145925842,-0.19341615675754056,-0.130361107819822,0.14864971408694147,0.10041272810039878,0.06509266703049614
-0.1577209600718549,-0.21363867498927508,0.2761939405281252,0.019468956322711502,0.5212741450960572,0.03285752338495053,-0.1122022663498335,0.2267743136147462
-0.4564590238684453,-0.11505949376575997,0.387266823032334,0.2156351607929882,1.0014549664827919,0.031241054958622436,-0.44373380598285334,0.26767471848276314
-0.5785079335434602,-0.0715503169915112,0.37400135982300614,0.29322618781386084,1.157594708801157,0.1510806608472462,-0.7982550587320996,0.18365251840473895
-0.4487328644890207,-0.11710452263647224,0.2509316472731854,0.21548180459766075,0.9657762069844562,0.3223668314217968,-1.046602918975867,0.03125096557615485
-0.08662149700196968,-0.2314723282383654,0.07383019807655629,0.024649800194125174,0.5258251936640703,0.43459214274014335,-1.0885804112814275,-0.10080887801437506
0.38762339277884583,-0.34031524168000743,-0.08478476543205818,-0.1849360790304345,0.006988624672582197,0.3952158675324377,-0.8992638824682375,-0.1363105953529452
0.791930179889241,-0.3476716317955815,-0.16349656823357225,-0.31526984595661084,-0.4245100886366666,0.17596040153247436,-0.5378839633317779,-0.04999042504411151
0.9530805074491995,-0.18517944217071217,-0.13485975428970498,-0.30679198818541875,-0.6626875643206427,-0.17547126010366704,-0.11844476408959238,0.11857589836814925
0.7792124736213287,0.14750690663248525,-0.015745794670599646,-0.1568373423157279,-0.684061800088565,-0.5576211770653798,0.2403602211575834,0.2823186497658283
0.3020048607752482,0.5726618654106111,0.1396058071164267,0.08551957856350793,-0.5345735793203032,-0.854149652907929,0.46081949382039206,0.3478315012240024
-0.33030076565307387,0.9613955409054071,0.26221694397725626,0.3385017872227152,-0.295791605293554,-0.970700573447531,0.5279586996045785,0.2617301396750596
-0.9064436484237264,1.1856263922270236,0.2972390102045432,0.5123218853317649,-0.04975474383168625,-0.8604416364156371,0.48191283485137837,0.040229206717925826
-1.2304437288065435,1.169933585302814,0.22528016888750987,0.5361408919081655,0.14372310753649148,-0.5377209480613668,0.3892267308294713,-0.23339766446257468
-1.1942733630937654,0.9181367042632164,0.06603261473409705,0.38388603179490793,0.2538458730832618,-0.07999213036541822,0.3086998682897255,-0.44420582012612553
-0.8179264717593739,0.5043733230119917,-0.1352813904713894,0.09057776104331354,0.27452914963012803,0.3861890118502129,0.2672809731087161,-0.49812490612108634
-0.24153257246189794,0.038373946076865444,-0.3282023269978969,-0.2516611881974746,0.21628029480830166,0.7192702118816433,0.2555745886673274,-0.36615158297045725
0.32900602280277075,-0.37459628918427773,-0.4721533946136702,-0.5225330944396451,0.09967159328806341,0.8119583246912886,0.24287956492260232,-0.09779949100125752
0.7025264019414815,-0.6618601880235931,-0.541194801073088,-0.6193699351927039,-0.047359795570472846,0.6376979190186017,0.20210360625610319,0.20298011874718935
0.7759512990531525,-0.7928330124369737,-0.5216520756471583,-0.5010075276455148,-0.18937089226008239,0.269958023333382,0.13027563743418394,0.42633131945078473
0.5688682839931658,-0.7732339155353644,-0.410109427744705,-0.2088413896808382,-0.2843033685842666,-0.14244603557678875,0.053155391654482013,0.5039664536465603
0.20526469284664128,-0.6329755087373591,-0.21694633743264655,0.14765176668737792,-0.2900798478956337,-0.43933361253547837,0.010743442829618291,0.4323267662159521
-0.14689144711743068,-0.4162197538428505,0.02667813686139213,0.4374931173613972,-0.1784888457212588,-0.5229994307653828,0.030477125294664616,0.2629331840009458
-0.34837606048507724,-0.17592790511353162,0.26691030999554677,0.5656961186709222,0.04784590472996402,-0.4012774985844927,0.10292944077984476,0.06949741527045641
-0.3404901499160205,0.031549180297016234,0.4380833470227941,0.5119253328517731,0.3440857029245333,-0.17352364797579994,0.17648213585816416,-0.08740520184125182
-0.15623153562631298,0.15724126190372098,0.4856962343165565,0.3297561398462702,0.6260370273444428,0.032562312344522705,0.1787173456878926,-0.17925195382266043
0.10736277988999385,0.17512948528389538,0.39136686705514173,0.1093188398338828,0.7912596467268534,0.13432175339233451,0.055927932692135876,-0.2068639516417144
0.337203781935128,0.09489421399387034,0.18636817190748078,-0.07220294145258119,0.7546307606107897,0.13379914760608988,-0.19079348624249126,-0.18593193395237378
0.44912019822124166,-0.03732612196118003,-0.055063075201325286,-0.1830765040453651,0.4857931371584997,0.10347335659803872,-0.49429496167942233,-0.13538367239499746
0.4128392415678661,-0.15418066799263416,-0.2420620107353894,-0.2377632515556704,0.030874238807995055,0.13146832526056038,-0.7435971556755849,-0.07520476468775732
0.25226197534632105,-0.19423046849361159,-0.30274075246084964,-0.2724073197455311,-0.49474202447042553,0.2609079195960249,-0.8309232535143519,-0.028651739055908967
0.027618813639329796,-0.12987970852757258,-0.21311088065740527,-0.31453170824187143,-0.9422601746316343,0.45775875489452794,-0.7015764667152832,-0.01940003606642294
-0.18906253115351535,0.01756341024454003,-0.005756229451710855,-0.36494900815717984,-1.179452696376795,0.624067144105684,-0.3820501953369189,-0.06002849209907547
-0.3360880389676559,0.18516157528480706,0.2451772161111715,-0.3989045250819954,-1.134504939370853,0.6490264566529451,0.02788506481422626,-0.13855452184613004
-0.37770204908232335,0.2966643786595615,0.45403165782367266,-0.3819258243112947,-0.8176972859587398,0.470134743439262,0.394846422352598,-0.21544516216567752
-0.3117757553839797,0.29867229614020924,0.5538566297652417,-0.2901580966223734,-0.31502188895946315,0.11149110361429969,0.603538402568175,-0.238701932326047
-0.16851850305870755,0.18621964434997793,0.5148506692970596,-0.1257822096055546,0.24116915536404762,-0.32034897772210946,0.5976863987413172,-0.17143839474178074
0.00010462857184711057,0.004655327704691848,0.347402367269099,0.07844494494549625,0.7120800049730719,-0.6794637333715059,0.3961847883465992,-0.015248780328626756
0.13827240080964656,-0.17239474815388714,0.09326843170945477,0.26828158661576457,0.9899248665185334,-0.841096215573382,0.08287723594105116,0.18606330916873384
0.2068105369269233,-0.2763263927964236,-0.18890182743249037,0.38910592335736693,1.0241939595470033,-0.7529915023080619,-0.22309935798849886,0.36466892268434087
0.19930065749134115,-0.2705608830408754,-0.43833060566334264,0.41057221703926483,0.8320289831416776,-0.45672323195556747,-0.4066883946833492,0.4574668094234378
0.1456696576514011,-0.1596658427793924,-0.6040135293375649,0.34118419281064083,0.48989495859572246,-0.07054780071681453,-0.39617153478752426,0.4302651921865751
0.09743478575188515,0.019217851660937594,-0.6528050582013231,0.22254669338127114,0.10701278876386891,0.2591056470737369,-0.1915273945873954,0.2881767337315946
0.09696802094293146,0.21366105164988547,-0.5742391116387358,0.10582515163805553,-0.21209710959744058,0.41672351862319534,0.13012842987209114,0.07152947352168888
0.1453342728119148,0.3720386340852243,-0.3831816106087887,0.02587991721575591,-0.4020934805736472,0.3618491479412324,0.4403538221332961,-0.15816461988663683
0.19087725324920407,0.4536767261298819,-0.12047017337645205,-0.009961192322770271,-0.45409989771642056,0.1404182363786815,0.6120302270485826,-0.3368001969372296
0.15345915428276177,0.43423625973910646,0.15089296641446576,-0.01342037167837075,-0.40868476136787013,-0.1389690160027124,0.5773002161881939,-0.416633870239726
-0.023496972203576133,0.3098145986270267,0.3581712834689954,0.003067480336873046,-0.32863482689841167,-0.35191042163227243,0.3606749999125105,-0.38162070641220924
-0.32400040210791115,0.10091327147925985,0.4409915677375677,0.038898406517899824,-0.2656684020112775,-0.4094592493046835,0.06695846846580407,-0.2538908232731676
-0.6477454097530585,-0.14686374503826458,0.37620964149075725,0.10251236807725325,-0.23825011250168976,-0.29451906057196364,-0.17205143577888982,-0.08646065023921432
-0.8487357391151691,-0.37029578801770324,0.19224327629451327,0.1955513684153268,-0.23056442094577653,-0.06774411949612671,-0.26416725604769314,0.057717454332375566
-0.8065873354028846,-0.5056563599806526,-0.03829097666808502,0.29608544140511767,-0.2097235305204734,0.16260234347531655,-0.20041473827268702,0.132397262870213
-0.49260181792836394,-0.510156568441393,-0.22756860069177678,0.3553777505887809,-0.14877714084864724,0.2948476654939789,-0.05236908497527553,0.12786712902231925
0.0059474684298197805,-0.3782684125922145,-0.3098412453918989,0.31507906626335896,-0.042744152145442804,0.2841672794212179,0.07308942623490182,0.07421972188942651
0.5184671087254958,-0.1456426428938905,-0.2679090277429665,0.13806658674360497,0.08888387522327716,0.16054953707521322,0.09387289945634497,0.026028755698138457
0.8653688556374703,0.12073731618369633,-0.13590559269698654,-0.16404223887931613,0.2128441686453729,0.00540758144788611,-0.006444882548600495,0.0343871023528586
0.9360755253152185,0.3427024345950271,0.020835899403129906,-0.5230717411235378,0.3004998062555765,-0.0963082263003896,-0.17713502399999628,0.11831736086958004
0.7316053654425441,0.4553872162966582,0.13679098341568646,-0.8323011845630918,0.3442412542941561,-0.09839192012500886,-0.3343120199796129,0.25001106321792566
0.35373988022575936,0.42864814762170156,0.1735360652964365,-0.983501297056117,0.36096892961835964,-0.008007204737422153,-0.4072414612814096,0.36388448324914546
-0.04806435621621244,0.2778505624894719,0.13351771832395395,-0.9075202761444956,0.37776037822404673,0.12860736667121261,-0.3697439594298243,0.3877144592407259
-0.3415624874091516,0.059142464438877725,0.056910368077346854,-0.6022694414472174,0.4072687846565292,0.25414118322362883,-0.24226153630542693,0.2812703885858564
-0.45745716627312316,-0.15012768300785437,0.0028275687149986474,-0.13825667184839693,0.4301693631841412,0.3246758672252644,-0.0708558746374445,0.061997832154075214
-0.3997904606635102,-0.2791881635282195,0.020590083095444058,0.35960225959830655,0.3996194260818885,0.3218527639797624,0.0973839846282895,-0.1975613830452797
-0.22433990276928126,-0.28982962145828395,0.12262783857413047,0.7484816993628921,0.26837593277105326,0.2528235616379582,0.2269898070231251,-0.40172793303731835
-0.002701951587460434,-0.19116085163538424,0.2735563401524671,0.9126589624095288,0.023066082271738397,0.14223295352602383,0.2942215766026446,-0.4777256268466814
0.20686331326605312,-0.036967912818297415,0.40361059667897103,0.8036482239469607,-0.2962369580443271,0.02109976864758094,0.2846498232026504,-0.41108726478154023
0.36887540588104895,0.09534298154945915,0.44094667092561135,0.4605847872836854,-0.604806833486905,-0.0836245412079364,0.19621250321196942,-0.2503240878576226
0.4620047382689686,0.13789820848191017,0.34661869476917895,0.000667612797652233,-0.8067641556977835,-0.15653101311264805,0.04598706809889182,-0.0785557266081872
0.4659043536335399,0.06373583133872877,0.1351648098990918,-0.4194549818616249,-0.8352801745096997,-0.19663291065607938,-0.12789380348528878,0.03033909709693023
0.35843738595467384,-0.0994122470597455,-0.12900290601508002,-0.6586736155455185,-0.6796532640418673,-0.21455575094954618,-0.27517532859358423,0.0457108442748079
0.12863206806447613,-0.281088198023562,-0.3582699033266724,-0.6429456546298395,-0.3890039655207567,-0.22511437339854226,-0.35013972774040936,-0.012138085973690134
-0.20279465533581917,-0.4003966424368581,-0.47961631625066675,-0.39276848181564206,-0.05421012795897757,-0.23913586621114602,-0.32659591839138935,-0.0897902875572347
-0.5714708006637806,-0.4025881525879952,-0.46559740345228784,-0.013097581095356489,0.2234282739607785,-0.2585686957402296,-0.20448563602925623,-0.13055243513538578
-0.8789413599173571,-0.282460760304484,-0.3433051155702486,0.35219526597322914,0.36652632889488773,-0.2760062547683251,-0.008748562086468088,-0.10011972734416623
-1.0240154330179996,-0.0843697576373524,-0.1772721481004918,0.5811232142112418,0.3483842629330809,-0.27718828038710486,0.21588212841140647,0.002295429668131354
-0.9420477060135525,0.11995421864302451,-0.03651021320144009,0.6206355036459995,0.20217636048479484,-0.2453931298283697,0.4136071850323466,0.14847243315128675
-0.6329232101591665,0.2642954578172447,0.03540026682618601,0.49848155466676486,0.0070464517140865724,-0.16794005725868302,0.5316746657916951,0.2948789939010618
-0.1652148603731853,0.315517482493106,0.03186425018696431,0.2975163800422794,-0.14492923631874235,-0.04401856761270325,0.5382235570920995,0.39726632952743035
0.34368909105238943,0.2834725637702052,-0.024888765101715133,0.10871989169035753,-0.1869603668789177,0.10981410479569181,0.43603958263767734,0.42181563462067256
0.7626987946057259,0.21086599271056744,-0.10020319461455975,-0.012060479025878541,-0.10322660897237093,0.2613616700720889,0.2627949444227014,0.3532189231169599
0.9857217279221182,0.15050264914400655,-0.15905000878543957,-0.06279722046368906,0.06963489466643909,0.3738199381513648,0.0744626323625051,0.20064617128958648
0.962872331625414,0.14130921523006698,-0.17090265400868357,-0.0827418044022768,0.2639557085899467,0.42210710629296094,-0.08096584249636228,-0.00023718276278452853
0.7150874082840123,0.19237266819242588,-0.11400069504685065,-0.11896629744533518,0.4125108964223984,0.4049963502453904,-0.1848332119880269,-0.19268589237989567
0.3271104982150391,0.27985412584965297,0.015282228252129462,-0.19298044647105875,0.4742188027645068,0.3437744175720394,-0.251176414775983,-0.3135949708877406
-0.07948612889724656,0.3575524304407836,0.19171386858592399,-0.2866155870674675,0.4441679058524192,0.2661921566463547,-0.3096068007029606,-0.31563240198197223
-0.3846938054725871,0.37744629933726487,0.3599404804496699,-0.3534823485339991,0.34731429950630704,0.1858789340977558,-0.3779196745013924,-0.1901793390719382
-0.5078589894333021,0.3116298205942715,0.450055229296581,-0.3471571361538371,0.22221037622880266,0.09312575841621316,-0.4414418992496079,0.019817158140454153
-0.4332783311945263,0.16480623435248723,0.4062087794427006,-0.24946168138627497,0.10349093754933257,-0.033423209807506016,-0.4534603585391063,0.2279699005325716
-0.21453006870278515,-0.029399719153453453,0.21504743333626766,-0.08468837904861166,0.009985360347114537,-0.20027099221751135,-0.36001152944468606,0.3361648522737195
0.04628514563560317,-0.22550622436348325,-0.08034570007888298,0.08632576612263908,-0.0583449190833917,-0.3774565047976723,-0.1375436681036339,0.27843189175115873
0.23876035688391342,-0.3856737825023023,-0.38883430352776066,0.19030600922620927,-0.11465679461674319,-0.5015937862551326,0.17834874702534573,0.0556463203943149
0.2881429465985312,-0.49075818972489793,-0.600472926299748,0.17488248483094448,-0.17338250651956305,-0.5074512292999885,0.4929987845343641,-0.2578017700319418
0.18403817035447384,-0.5394473044115604,-0.6267077235163337,0.03662167523062133,-0.23789727680026335,-0.37043748664299797,0.6865523765540361,-0.5407991994972007
-0.018433120489277782,-0.5396142566128663,-0.4360337968136696,-0.17120307803998566,-0.2949051863534193,-0.13157808319382416,0.6671763029402674,-0.6750324649592173
-0.2245973690044731,-0.4986544171339565,-0.06970957419799263,-0.35778059980381743,-0.32035930063662016,0.11458542654063554,0.41709628930699033,-0.5956741766538637
-0.3411070775510041,-0.41799801782505036,0.36998276798272367,-0.43357724242692525,-0.29514092113045903,0.2660355348686892,0.007894123037807082,-0.3207814934626603
-0.3140886870870885,-0.29447290068581045,0.7540429539330962,-0.3504482336964315,-0.22160851384267644,0.26824254658826385,-0.4230819321278288,0.0537478593133745
-0.14967119071117954,-0.12872227784833906,0.9695586066772858,-0.12395332311932708,-0.12954800042388848,0.1454473409125342,-0.7251166879915385,0.3918888908280865
0.08960288820267613,0.06322086837584112,0.9556727395739566,0.1716888681066562,-0.06479127127829139,-0.012220966959999604,-0.7933497379754102,0.5724105988633311
0.30991580300401445,0.24416764074227124,0.7216106750799496,0.4328938169245234,-0.06408077361999778,-0.10030750912001636,-0.6106010128272766,0.5384193800182644
0.4234713449528864,0.36491197100077255,0.34126271967867006,0.5683155247388098,-0.12982047596011245,-0.06049825277779487,-0.25409378648663244,0.3206492721780888
0.38412636100617725,0.38809327337363814,-0.07449610205570883,0.5371971045907459,-0.22132144369943052,0.08617861019000336,0.1371744686351333,0.023735531167730986
0.20648187912091556,0.3133524828807702,-0.4182046607761699,0.36891809317169394,-0.2715560352843143,0.253010697604397,0.4214181523043673,-0.21989174889212154
-0.04123932145361698,0.18535446660931248,-0.6227839122118379,0.15270848245942406,-0.22331731467499838,0.33879542793452,0.5126752531231776,-0.30895794517639763
-0.2683857682877946,0.07583245586510562,-0.6792742607080576,-0.0024050946244451284,-0.06479347683464397,0.284967296843141,0.4111989799942237,-0.21836344066339675
-0.4021935416604261,0.04813091767581078,-0.628281971490674,-0.021948171972926547,0.1581950874679269,0.10550088488143347,0.1923286949051098,-0.008785045515166434
-0.4167017607921865,0.12413641526212771,-0.531271682091344,0.09226109767527796,0.36327492102425496,-0.12460762282880783,-0.036916344811022614,0.20443023216414608
-0.3357970049793385,0.27127977164796946,-0.438156564737858,0.25788556167472904,0.4743464964592628,-0.31094780910280706,-0.18770660080532783,0.3091077554444119
-0.21103774522464666,0.41530154804806557,-0.36823014740738397,0.35203791955758623,0.45984376018898376,-0.38513103421283323,-0.21972448342885934,0.2535682604961823
-0.09001737238116547,0.472081302592932,-0.3116184893990498,0.2765286652221714,0.34379457826800286,-0.3308901790136763,-0.14132316774020434,0.07469867341052482
0.004534412000179053,0.38493449282661363,-0.24554265170966205,0.01310204869402298,0.18593562112946763,-0.18250122870854912,0.011501382367007087,-0.1200169020468486
0.07418781745876135,0.15252272721132848,-0.1529219692215747,-0.36208077216696954,0.046547680619234685,-0.002003478301673015,0.19799136413378624,-0.21076974870135093
0.1278325109663876,-0.1646326119659116,-0.03289418372148089,-0.712672413565811,-0.04147645687842052,0.1505351407267412,0.3825342146065225,-0.13435071891621306
0.16399474386065513,-0.4642791553140855,0.10024431607240275,-0.9060544825305513,-0.0790194955162664,0.23937378032190135,0.5307198226611304,0.07622377238155223
0.16727558625411662,-0.6438654653841237,0.2263565090014887,-0.8723503054380372,-0.08686025478846054,0.2595069029987506,0.6027362787783431,0.30685093155914744
0.12246203877734783,-0.6464203669591176,0.33000958748316817,-0.6288019005187835,-0.08465920893452056,0.22764726999840312,0.5568617153424954,0.4245457897202959
0.035565210098509006,-0.4881698776697827,0.40575640338660557,-0.26158620159444473,-0.07736258183225693,0.166447229966011,0.36683557483049756,0.3499676258272623
-0.056165261812466,-0.2513484751312104,0.4557039382438509,0.1189136597196738,-0.055994988494123946,0.09275214599833913,0.044799263377934925,0.09898939557542086
-0.09677570074908799,-0.04309796837122039,0.4819903981211435,0.42245686760623663,-0.009623529113357478,0.015359168508800957,-0.3455211731558973,-0.22737506796254306
-0.04195824936765618,0.059326672135308324,0.4801685181874527,0.6023987547470044,0.061324932322859065,-0.060312752013955605,-0.6987148012009342,-0.49583001123334924
0.11094913361963557,0.04733977749727805,0.4392199055887519,0.6540482967842427,0.13989039386309354,-0.12734127379253596,-0.9031045066553715,-0.6064771975980106
0.31222653732059763,-0.018711556348643407,0.3494096615851387,0.5981815764027764,0.1986420819638292,-0.17674910636753394,-0.8884312204873538,-0.5373146374880785
0.47657039097547316,-0.048844737800458726,0.21281694968139225,0.4644403352850694,0.2124523821483436,-0.20065298805607903,-0.6613120356946385,-0.3464559027588697
0.5213465006520659,0.020198836929328754,0.04838024629594152,0.2835762520324522,0.17007661136414862,-0.19515034950137647,-0.30695356432769927,-0.13393581379791236
0.40841307446536806,0.18453012175517178,-0.1129794996953706,0.08774799243894926,0.0790443517529666,-0.15997061615151115,0.046727637214228075,0.013972783951695631
0.16709031005075425,0.3722447914094499,-0.24012902650244694,-0.08840760642070337,-0.03685372968771267,-0.09595686919907047,0.2852194403531736,0.06727903093216608
-0.11695252485885575,0.48267577894429337,-0.31289470913176476,-0.21287666066594968,-0.14551955322699112,-0.004726356845334534,0.3552609268962414,0.060018485998964394
-0.3439551080689049,0.4435287474765743,-0.32705298233581775,-0.26816442520175443,-0.21780824519275094,0.10612317677418619,0.2809295024236491,0.06129847054877452
-0.45108451115790954,0.2539290082116385,-0.2927966740008447,-0.26261031432496373,-0.2393001952792322,0.21462323999182506,0.14203302700248469,0.1272737842977389
-0.44207089306688285,-0.010318106484124633,-0.22977402314050993,-0.23056078183001247,-0.2177933729721801,0.281644859873939,0.02879000916498457,0.2616264338857595
-0.37623268169894686,-0.23212016158711346,-0.16162435172084927,-0.2165370501244833,-0.18140718505962025,0.2626510122221496,-0.0022789168481741453,0.40780682637317356
-0.32291261777640223,-0.31078084415777674,-0.11086414464600093,-0.24966857496885056,-0.16589625552185866,0.1333030855842729,0.05011945844849011,0.47894363875239754
-0.3114601777704075,-0.2127782263218647,-0.09353528106128324,-0.322576977983303,-0.19586258637750217,-0.0855062532099368,0.14022598681477513,0.4089645894329277
-0.3117140225790073,0.009954335973493992,-0.11383238836151256,-0.3880450666385349,-0.2691626311399958,-0.3234784763075056,0.2045790574026665,0.19475127174756926
-0.2593586610107261,0.24405682185596667,-0.1612178526410803,-0.37832090803215856,-0.35373444061400805,-0.48777225434228744,0.19513048090748392,-0.09544280325711643
-0.10827030599286054,0.3696140619124396,-0.2131569115674107,-0.24004232531761896,-0.40025598058810885,-0.509437237706597,0.1001035595337008,-0.35120543675973165
0.12778343071794962,0.3178442192883258,-0.2435947928605738,0.03224817271773566,-0.36491844123570916,-0.3809600021444284,-0.05394786915357135,-0.4701248019638634
0.3738485511673404,0.10174251034846828,-0.23288395500695502,0.3827643377774314,-0.2301122660714821,-0.15962176786202883,-0.21475000326231802,-0.4044827849622821
0.5336443194101503,-0.1949267564275674,-0.17330417640933243,0.7103661349874711,-0.012300367588758007,0.06590102722872607,-0.32276019341085904,-0.18466931298860412
0.543542217250213,-0.46156096472742264,-0.06735853753897054,0.9070467096730563,0.245071533750925,0.22380384760831712,-0.3290506112869948,0.09070328613710393
0.4064798124201257,-0.6119045054682175,0.0782950259099712,0.9010033299163894,0.48710731251011863,0.2927237583011988,-0.21021117003083375,0.2962425130816768
0.18720920111690614,-0.6157103919903569,0.2560053246102177,0.685099012137197,0.6626753868580318,0.30313336519394823,0.021639535777846098,0.33748862214247444
-0.024879301845267248,-0.49786944892164636,0.45138343648037244,0.319274138757994,0.7349249158866097,0.30947839881780226,0.31741252202883496,0.19880822799123746
-0.16142870166685994,-0.31159081710821007,0.6313967104379267,-0.0926967866529882,0.6882489489530974,0.3516495322812728,0.6014082612286692,-0.04442864562342298
-0.20355802684047283,-0.10618946602408387,0.7391723897404694,-0.4412285752680005,0.5338431013658125,0.4286331241396559,0.7923480197299818,-0.2602659876009673
-0.18011854863569485,0.08972140489765618,0.7085043757030465,-0.6479750448543303,0.3117987607334028,0.49902931723307964,0.8280958216580341,-0.32761604020369683
-0.14144977645587015,0.26256625451828813,0.49737167913514285,-0.6880468497706348,0.08351726018570343,0.5066581865449051,0.6841661493357362,-0.20215578725019143
-0.12724388454841082,0.39689468937872335,0.12281064308120389,-0.5903451949438576,-0.08919067135643687,0.41438660711402264,0.3791840380236163,0.05726122077153996
-0.14680825242612275,0.4670078239691861,-0.32607168435716943,-0.4177266315075737,-0.1718256187496544,0.22555713479110154,-0.03227936504486975,0.3190784728531689
-0.17908467392811514,0.44823557791244173,-0.7098361029089231,-0.2367268918885388,-0.17562481422288745,-0.018221079595359117,-0.47357618214966346,0.44984394714400844
-0.18788241530093883,0.3402369421334167,-0.8896951239175072,-0.09112344161281778,-0.15194487959610506,-0.25902865655896834,-0.8608645352654741,0.3842426321574928
-0.14199470541004428,0.18175473539632173,-0.7867276184070308,0.008174552515551301,-0.16206911602224736,-0.44934016386165193,-1.1170823232332816,0.15537654954157132
-0.030669135624872806,0.039936505281327764,-0.42250022288756384,0.07345773095791915,-0.2388856579584732,-0.5675366724338554,-1.1853076352366634,-0.12790883271817305
0.13062797672672785,-0.024417151125332215,0.07965769968045454,0.11936240595822732,-0.36351178281537877,-0.6155914355244783,-1.040754180766743,-0.3398336468184654
0.3041910979151755,0.005577787054106383,0.5371799146522057,0.1464035482153416,-0.47159680326811954,-0.6052563497247687,-0.6990721266067516,-0.3996223991873154
0.4407621787482972,0.08979533380799581,0.7788810167527184,0.1409806821654378,-0.48705567243067155,-0.5458740454436549,-0.21874665813039668,-0.306075061510689
0.49385128918124677,0.15505643098578434,0.7136691959877015,0.09196573999099969,-0.3658439362563018,-0.4426027888657689,0.3040615576882671,-0.13023044993698157
0.43581014815160646,0.14235039104532124,0.3669589639315935,0.011298949075448749,-0.1265070941376898,-0.30325642615453785,0.7504152515871928,0.027096463653367316
0.2723331544757662,0.04551039829910504,-0.13108107239634403,-0.05891391347437935,0.15019113324250336,-0.14489452902043745,1.0051537943080606,0.0887424450617737
0.04764907265817894,-0.08566630591858468,-0.5991069943742767,-0.06308742571543352,0.3554838765349778,0.007091196223689673,0.9927126463082675,0.037086242390494344
-0.16805865249049406,-0.18035458655573292,-0.8753192051966536,0.03363222610988086,0.4055712357671828,0.12728305578617116,0.7116263518201912,-0.0845630952828705
-0.3084313595078909,-0.19541841712384556,-0.8750831076250054,0.2151237321208436,0.28589681832379976,0.19967836115313345,0.2502519469255663,-0.20187240542873136
-0.3434929465319971,-0.14357694572492535,-0.6139453301485913,0.4108626237737769,0.061055841478547264,0.22205146689312397,-0.23195802343920957,-0.25120613180688045
-0.294801989786367,-0.08143284604251305,-0.19159325255753357,0.5262394462438565,-0.1575256060556105,0.20425516053314963,-0.5592395320450475,-0.2098333289019525
-0.222232835779346,-0.06734835575810393,0.2516457631705565,0.49095942223987743,-0.2690869094804736,0.16399571853067285,-0.6110363363524819,-0.09995278163137439
-0.18924640537017504,-0.1209253537589519,0.5859900656815802,0.2968604640513984,-0.23335626674590823,0.12302855326911169,-0.3765846326964961,0.032624127052200025
-0.22672175636430314,-0.21289526380063153,0.7319348618390934,0.002533739146904835,-0.08494285305277503,0.10305823106338656,0.03662081170144467,0.14978810837866355
-0.3153683171526648,-0.2899420883948166,0.6760838656840517,-0.29675058706318963,0.09285298576463168,0.11928560161746539,0.44678694415186504,0.2415288359748196
-0.39507072225704276,-0.3132589856785287,0.46117443119012336,-0.5141497191152546,0.21606168912635462,0.17262431385552415,0.6740305527746122,0.322081218561033
-0.3949187702635123,-0.2817840528069849,0.16020374190853584,-0.6052480094972562,0.24131283291287148,0.24591449630211273,0.6148101954763217,0.4054697902500278
-0.2684312154976817,-0.22503242995187364,-0.14879179492419628,-0.575381065358667,0.1797422859827053,0.3098065661305517,0.2839777671270796,0.47951329838855655
-0.017797050458656753,-0.1736389960223119,-0.39582950021900737,-0.4622272631578236,0.08092875483605458,0.33790607408298057,-0.1912647683424241,0.5000053116158306
0.30272511484740283,-0.13084323044361368,-0.5224328491550847,-0.3081598962080819,0.00022691544344802855,0.32214280601649065,-0.6223938472625833,0.41371015233119934
0.6046575879072895,-0.06622455248134357,-0.4878010192372612,-0.13916069700202494,-0.031174975895913386,0.2766737282723702,-0.8356709377089511,0.19816305690905375
0.7963223192843408,0.06284413617234386,-0.2853119460219115,0.039381632809187814,-0.018718928812877993,0.22630203070427451,-0.743641951210514,-0.10811142752200441
0.814356618908341,0.27545590597937886,0.03864718488383957,0.2303575602388492,0.004557967797336145,0.18734935435471298,-0.3827326442872668,-0.4088717922394046
0.6439213744002427,0.5407578175645537,0.3827662444932076,0.42603355417004973,0.0013889369345126941,0.1546266274382768,0.1009092576127995,-0.5910755293532416
0.3219504743441526,0.7798034490257011,0.6195445626939197,0.5960822507303483,-0.045758571543533945,0.10355188499441594,0.5142067317590943,-0.5824078415583629
-0.07427619040871163,0.8978761866388874,0.6484518401467984,0.6916707714112229,-0.12306476092819893,0.00636240407256563,0.7020391047913258,-0.39161656457149424
-0.44666989374433025,0.8306921295759239,0.44776337545456174,0.6649064281794612,-0.19174466461092318,-0.1471301257231844,0.6145476810923527,-0.10745337440784447
-0.6985987383093941,0.57856931592102,0.09459242627695985,0.4935896670603635,-0.20836812025432078,-0.3366316032589999,0.3240460807005609,0.14310110122753386
-0.7575994340679403,0.208881278328339,-0.2632858265575213,0.19783867590224602,-0.14816813205231244,-0.5148834034691858,-0.016602364638201094,0.2543598205357715
-0.5968406581004375,-0.17475374417394748,-0.47443915550702426,-0.16052075890696815,-0.01975637583646914,-0.6272729008966487,-0.2525515778134457,0.18940054417338772
-0.25049199565898944,-0.4791034168367644,-0.4569162499533614,-0.4958020212905675,0.1355737620210611,-0.6379557473425396,-0.3016559700357367,-0.005924244578277037
0.18573259552647794,-0.6579260492695506,-0.23865461100442575,-0.7254781996834778,0.26005340555589446,-0.5488511644922005,-0.1865535230923463,-0.22776511653622725
0.5764060794828839,-0.7199477869438857,0.05720710918645317,-0.7958652189293746,0.30495238996316476,-0.4008211528215454,-0.00923284129934742,-0.3657698055074337
0.7888666556866414,-0.7075562985514371,0.27455558966445875,-0.6986790160011337,0.25430562516249083,-0.2544758956629293,0.11405280853615235,-0.35582709570839244
0.7420991201210867,-0.6620976243344439,0.30135205177629665,-0.4741542177151764,0.1344839819887104,-0.1586422063981688,0.11785912839975522,-0.2066804972807493
0.4411649788175797,-0.5969324745424401,0.12252936694519964,-0.19827600446329627,0.002657707813277525,-0.12319724935364645,0.015833357320128236,0.012611438437488241
-0.019464151563535165,-0.49264922944530887,-0.17608858013539125,0.04508877897408136,-0.08146958040429021,-0.11320176453127925,-0.1198041001981379,0.2138075549494128
-0.48739644602403326,-0.3156923365980884,-0.4524966570813928,0.19866795880645244,-0.0858744457964746,-0.07001517755243136,-0.2096641568173155,0.3326871573182756
-0.8068577894920572,-0.048766914828797775,-0.5783264487735865,0.25612706013461,-0.021892875699093872,0.05177859002755554,-0.21508463715206022,0.3508783183746228
-0.8739930001752849,0.2851343180112009,-0.4995329573654625,0.26000139502284236,0.06277682377662523,0.25349517427502943,-0.15408916489947475,0.2901892313342363
-0.6711424555197736,0.6194462226971327,-0.2594917091985468,0.27065811054823685,0.10950358208724334,0.48587310484340007,-0.07994793656987619,0.19022687948977554
-0.2691891426922656,0.8639619905968655,0.025204080787115245,0.3233247396996191,0.07939627040993866,0.6703321315505544,-0.04090837334544964,0.08612270529311745
0.19928962685166046,0.9386023421294405,0.22343282721932475,0.4006936581583484,-0.0257564378136651,0.7356454449491786,-0.049243013822944874,-0.0019042076748286966
0.584411055306602,0.8067197858048222,0.254194122270816,0.44053222460260366,-0.16252849867981722,0.6508706220400131,-0.07817347543356844,-0.06563220442535629
0.7665936470641285,0.4949405854760108,0.1264161821632348,0.37606356685553766,-0.26645069747716066,0.43916963955687616,-0.08490619147328289,-0.09970995012880232
0.6938809685346102,0.09016610451150033,-0.06565838777268165,0.18594720327870853,-0.28541853338079554,0.16743887556566545,-0.04161534447469277,-0.09607523562669962
0.39776736910840105,-0.2888296346474465,-0.19079400312850545,-0.07723092701876941,-0.20857674004147397,-0.08196796913205105,0.04618356826708572,-0.04751625053039538
-0.018809822787163918,-0.5358786013105558,-0.1500493670373019,-0.3013604733297313,-0.07297784922227674,-0.2432840298675571,0.1437292443146608,0.04171529481924597
-0.41863244472779987,-0.5977912590575051,0.06887530308576768,-0.3700091698927855,0.0571297980890544,-0.2882257971955641,0.2088268899901666,0.14652255017081667
-0.6791785500809328,-0.4906327889759769,0.38264967468722483,-0.23087836357421668,0.12484790432168932,-0.22816455372303418,0.21705397599200793,0.2221068814012922
-0.7339508429410109,-0.2850180985050789,0.6547318228426651,0.062230837217059735,0.10661045713056393,-0.10104714703778639,0.17519262111605505,0.2196898544379889
-0.5896634513563721,-0.07062444471906722,0.7654629277174951,0.3630728379886065,0.016216866580449615,0.04659816838981238,0.11522954089748441,0.11150098936983178
-0.31392371691541954,0.08058302665869098,0.6703116398536089,0.5012349863785697,-0.10914915366889373,0.17347885898851176,0.07352181664151801,-0.08815020374028706
-0.0017365320055932856,0.13655823350789442,0.4152800159100382,0.37095955594778285,-0.2272911654467778,0.25000753454957475,0.06919132764131812,-0.3192941676108079
0.261879537263569,0.10821890529182387,0.10478743735099301,-0.00843610353170005,-0.30347547857334245,0.25924954895858654,0.09530484610657684,-0.4955394580524467
0.42685090021208405,0.03759688295827822,-0.15581026726072508,-0.4953078484161219,-0.31546977546936655,0.19590677817392282,0.12636195983775242,-0.5393104844676188
0.4839578515829713,-0.022503345174670997,-0.3091680217374082,-0.8913109916906463,-0.2545057968752523,0.06593790053994256,0.13445455073995605,-0.4172514073391019
0.4557590393824021,-0.03163910124877748,-0.3613114029808889,-1.0350356924513318,-0.12504219217551452,-0.11295550412404423,0.10265860299162256,-0.15889753058537534
0.38102995546461516,0.019133606373352142,-0.360644504006675,-0.8749110828321742,0.05572646276262249,-0.31192111947025536,0.029119180547772117,0.15111147106372977
0.29913002687108503,0.10070948422371544,-0.3585719990258697,-0.4860795523889401,0.2587405914391589,-0.4949746415676689,-0.07649534213015172,0.40515660158926775
0.23724465260352062,0.15801646114235976,-0.3767388673070767,-0.026654659855843737,0.44545951790512034,-0.627123610177271,-0.19768304155365193,0.5157469915918091
0.20236214023697294,0.13789116924223604,-0.39775985510242157,0.3411503663971704,0.57400762624977,-0.684519288214105,-0.3124803691139072,0.4506499392295805
0.18025483167186576,0.019752280960582676,-0.3807507599320673,0.5242020405409761,0.6106221419624631,-0.6620570060189006,-0.393547434950738,0.24420566527232998
0.1429242198640729,-0.1676003102598373,-0.2900757595706169,0.5301979779855005,0.5440198720830023,-0.5733811772613222,-0.4127442211496194,-0.019743079291428767
0.06302205328447537,-0.35369312819670806,-0.12129789456534247,0.44503137949297167,0.3952025219483247,-0.4417311097535462,-0.3519085234469858,-0.24405568068448882
-0.07002672180251426,-0.4564000647631352,0.0885171655900743,0.372180609276595,0.21399670990031464,-0.28648267535713656,-0.21375209393041422,-0.3561958724422365
-0.23969412438816204,-0.41948772142796115,0.2718512366982903,0.3704791117287268,0.05980760208426936,-0.11415766404506641,-0.024479791225466643,-0.33195105173878164
-0.4039279190111548,-0.23844549167811382,0.3596131830487122,0.42526919578528377,-0.025443337238229034,0.08038369204514796,0.17443383373972224,-0.19738069287290302
-0.5099140034516814,0.03776182955167336,0.3149932662114019,0.46628665531580776,-0.03780861577226147,0.304029772161751,0.34047604681560445,-0.011102267957511482
-0.517144011478518,0.3279706207979531,0.15490092495527205,0.41758716366612253,-0.013757143564575719,0.5527549228795832,0.4428329490675592,0.16303053239941298
-0.4187827633143958,0.5507511982850333,-0.053711400219781644,0.2476007636557108,-0.012521466493485579,0.8020890856723836,0.4681308683230983,0.27921200899808635
-0.2496973391152216,0.6513903659503053,-0.2225122758438786,-0.009817193674112322,-0.08620670904402976,1.0053714454279055,0.41795254671800947,0.3191456552928468
-0.0740866626810466,0.6138028150348314,-0.28139540424141074,-0.27307664611712634,-0.252074581870379,1.1035741131454557,0.3019669767195561,0.28784909384249524
0.043723393302203865,0.45712296401407815,-0.20882957356244436,-0.45590008283802647,-0.4816906191682362,1.0469336304315768,0.13361656441650957,0.20386078237190944
0.07091437950187077,0.2242606302612603,-0.03864457064906456,-0.5095199959419183,-0.7130922567658607,0.8208280250453395,-0.06713639211798789,0.09113667314261745
0.02296826241984194,-0.02974624774032898,0.15759309706955402,-0.4414561129068655,-0.8779987247135409,0.4615485873185775,-0.2669983017246334,-0.026086490760425893
-0.043725998044008334,-0.24717638095443664,0.30174939430331377,-0.30392735965445966,-0.9267594944601875,0.04959051217206024,-0.4179093965608841,-0.12732108968229428
-0.05995129192297742,-0.377999003051585,0.33924300411352004,-0.16222419826930987,-0.8377600391998608,-0.3201384665897518,-0.46906182157723464,-0.19913735009694714
0.020497926171882095,-0.3940694173559288,0.25732505533206396,-0.0626932150756738,-0.6120720401445104,-0.5775636164958968,-0.39058042206781496,-0.23660286523809076
0.19313206730778537,-0.30344366872347195,0.08732778777318922,-0.017251781647502917,-0.2654939212921889,-0.7049753869554574,-0.19598954917812267,-0.2423580691336061
0.3968613127037838,-0.15452070886396327,-0.10798063438744228,-0.009482448456232532,0.17082661243334704,-0.7361430691180372,0.052270914562145956,-0.22358717227007896
0.5359278016144247,-0.021319057839686958,-0.25716990481897817,-0.014130621945199378,0.6412479292860441,-0.7261342377208267,0.26156784436848496,-0.18731152613192845
0.5232464384952126,0.027810588541291027,-0.30532016299647463,-0.015321273023788615,1.0593873282054809,-0.7101127893170552,0.34554904759546856,-0.13603617320451813
0.326421047271498,-0.03655776419221877,-0.23261857697546098,-0.01253910500429752,1.3185167920528023,-0.6785841439786983,0.2621463835726402,-0.0679375538144018
-0.006664716623888304,-0.18802446242206328,-0.05980611409435632,-0.013812923142287659,1.323485565799577,-0.587048693886967,0.035957179950023975,0.016094155171079576
-0.3582811820017952,-0.3540813753258583,0.1608454223493566,-0.024413171151956653,1.034182329748321,-0.39486665855392095,-0.24596204462805513,0.10294979547732949
-0.5865030698711273,-0.44810803829138757,0.3650434755455828,-0.040331484575593844,0.498969495533811,-0.10722957368862401,-0.46587977590702045,0.16499079351680973
-0.5878003333039148,-0.40767657666067686,0.4986398477922475,-0.04971893541848906,-0.14350793126841999,0.20993116256320124,-0.5238824075397283,0.17182926210676314
-0.34828013131162033,-0.22121502754202998,0.5331127927085949,-0.039056795404351995,-0.702405940984773,0.45583082481959913,-0.38222279659503,0.11256545832349127
0.041976693557518784,0.0676648639015947,0.46811810659258307,0.0008196924492208667,-1.0009640949307257,0.5481691563976738,-0.08370000327475255,0.013970598404088035
0.42176482973000645,0.3777106974176648,0.3226471315071941,0.07162789975986332,-0.9441037325944386,0.4710974044240938,0.2660043469417345,-0.061706615542619546
0.6271866355546566,0.6197060315223117,0.12322820553571479,0.16769233075359832,-0.5584792399685035,0.28698567768490346,0.5437450773797947,-0.04469821081785688
0.5655606191892305,0.7251908804606341,-0.10259167312420155,0.27754240200245184,0.012557310839237912,0.1031953429407443,0.6602897546454599,0.10037796271789172
0.25963405753700114,0.6646618294496568,-0.32587538351833945,0.384669437983959,0.5587397849352664,0.012587096343570973,0.5943017474895746,0.34226689530626686
-0.16034656189291588,0.45276981298543695,-0.5139676938235852,0.4663886392149663,0.8799467534460977,0.04295753307746165,0.395148628463999,0.5823630679902736
-0.5140236196128813,0.1430998455552151,-0.6326521380827856,0.4930217865091673,0.8614054829289336,0.14584892577174755,0.15553591307962314,0.6918251857107148
-0.6507826836318211,-0.18456572533001242,-0.6557543136986281,0.43194639714756256,0.5161375414449709,0.2307140770667099,-0.03219469436789428,0.571171797984503
-0.5147760783035289,-0.4434534766544166,-0.5790185399690595,0.25928608885094623,-0.024394204631706464,0.22184036433517232,-0.11640227618852993,0.2027469435231313
-0.1662996903514172,-0.5638994756684368,-0.4291893437497535,-0.023750019041990172,-0.567633500920287,0.10307692202415647,-0.10553619483652725,-0.330916726241137
0.24791791669921825,-0.5166390285152769,-0.2583019513744131,-0.3784145149509884,-0.9388516084552566,-0.07360575704639491,-0.05766729742258393,-0.8727510785506197
0.5602256992711897,-0.32555006763342886,-0.12109982800496034,-0.7287780257616939,-1.0456857125994796,-0.21680872568593126,-0.044649163675874334,-1.2499222767777158
0.6537153020240806,-0.06134898448471687,-0.04664641474519623,-0.9783996139558893,-0.901087526243801,-0.2443006761405023,-0.10920973309738473,-1.3402493674141345
0.5087471819239101,0.184191357470019,-0.022755812774218034,-1.0395527623511405,-0.5988706358023657,-0.12743132113846733,-0.2391317807190346,-1.1179504087728178
0.20435421874974052,0.3333921595416472,-0.005583666971222543,-0.8658047190422005,-0.2585185347022302,0.0893112484528197,-0.3741261606159639,-0.6596236870039328
-0.12453792283698922,0.35140677245870394,0.05040016026360124,-0.47593615629458225,0.03072001509459661,0.3035961387803279,-0.44155170685957373,-0.10853713659967633
-0.351626591955481,0.25583724827233806,0.16184307274337104,0.042467748553749136,0.23800237425896206,0.40012916498445394,-0.39936235999941355,0.3861837218374709
-0.41323003774421807,0.10383655526530743,0.30571927164937257,0.5560122043630863,0.3800058375524206,0.30559552020456204,-0.2604698323183912,0.7268258995101802
-0.327662406325076,-0.036462848558916516,0.43434869446573054,0.9302033967820119,0.48415936360179207,0.028030223428967146,-0.08461741394057906,0.8939203568568403
-0.1757765142194937,-0.11646702827174539,0.504893095203184,1.0782920585757645,0.5550111365361526,-0.3393428636934795,0.05625714692171616,0.9324750134936306
-0.0567491890510004,-0.12529180757889716,0.5044591818122329,0.9908792217313768,0.567925021964171,-0.6539108337387219,0.11820539458332197,0.909937173001578
-0.040879333389932854,-0.08816248363049585,0.45683685138169866,0.7307985461166551,0.4925445669839912,-0.78374363717372,0.10844122104718291,0.8720905141062609
-0.1384585869676312,-0.048580077876281214,0.40785950992800607,0.3967906413851015,0.3264520877688623,-0.6639381453649535,0.07952084134696058,0.8204069316733751
-0.29549359478767906,-0.045601642675013244,0.39701880676586804,0.07734110695126557,0.11274066733158149,-0.32366102228473104,0.09771040993049415,0.7192276638072407
-0.41718068435005934,-0.09713908398246705,0.43006973053420994,-0.17998137392234873,-0.07290467525664703,0.12611287115650194,0.20145502864397322,0.524444431694397
-0.41048579275937613,-0.19373983847108786,0.4680850637789612,-0.3706810349839729,-0.15910741499274664,0.5360135233842429,0.3717312382314602,0.2160115268597396
-0.22960743086198865,-0.3017467609724079,0.4411426451040249,-0.5126198796767567,-0.11764487957791056,0.7733625339726655,0.531964779106039,-0.18247494513988255
0.09493469200486762,-0.37361642787568516,0.28245524227080726,-0.6196852134234224,0.018761962141547538,0.7676905861827014,0.5811250864894602,-0.6052834216538142
0.4590195711970077,-0.36376542939625944,-0.032365441339269836,-0.6860316238281053,0.17020516813227585,0.5314218227012881,0.44560654804173083,-0.964706002970772
0.7236609376541243,-0.24675424447734012,-0.4605287649354379,-0.6876204582851508,0.24784636116210074,0.1507913082344356,0.12365151772662483,-1.1803688936087124
0.7772020248146548,-0.03138362946438441,-0.8967004334464319,-0.5976711593341535,0.19678561947798542,-0.24730581449343073,-0.3020504473369834,-1.20647051620265
0.5924620376160398,0.23673480239503003,-1.2094141712899584,-0.4065510038472402,0.02196079750761712,-0.5394808773452323,-0.6924421199450631,-1.0475437041390578
0.2464974809039611,0.487774996374376,-1.295406217857664,-0.1353216822738361,-0.21491121945115424,-0.6456448318321717,-0.9087202846420946,-0.7568815483424575
-0.11291749827180553,0.6520936672282852,-1.1260376059017945,0.16464311191895753,-0.4245567624165721,-0.5515417889128154,-0.8706707470596946,-0.41728586602052603
-0.33940374228079245,0.6870836468042852,-0.7610105341280015,0.4266186479164341,-0.5306279803233305,-0.30741915942581693,-0.5895166493893054,-0.11101685451440874
-0.35913444716702636,0.5951209797535226,-0.3208943278626606,0.5911996389814127,-0.502222145328008,-0.0047834877977189225,-0.16123511426564402,0.1086126003482512
-0.20106430782702311,0.423438245064225,0.06730376817181723,0.626224082442053,-0.3638398933487779,0.25870925963358804,0.2747377267141387,0.23160654805492306
0.02820586535875282,0.24298853892738556,0.32258894429912727,0.5357558570666588,-0.17940167455453893,0.41221035454452326,0.5910839300942289,0.2857205292037592
0.20578840697033843,0.11335819990216593,0.4340793811315046,0.3559345030178216,-0.019556241824077364,0.43079020400293294,0.7175180823751112,0.3152121591722395
0.25249954219590515,0.050602218073784754,0.4481422322216273,0.14141436636449717,0.07075449820056441,0.33620334162094884,0.6578841397718327,0.35653151244618253
0.16089288050226816,0.016873705690191827,0.4311928894007324,-0.05089510242196381,0.08876045351439384,0.18237917542668042,0.4766695225343965,0.42421929032871786
-0.01559023952837558,-0.059324105330385526,0.4319127195667798,-0.17494836428366461,0.06790913002197403,0.03259127917917378,0.2645903553969125,0.5118900865656425
-0.19741879031831533,-0.2405731097963435,0.4619979435997937,-0.20366694705536179,0.05463142794967269,-0.06434475342794745,0.09894378382960026,0.6022533767151416
-0.3154362931998361,-0.5373776362851942,0.5001954734940873,-0.13427293946820873,0.08050698914471781,-0.09144604488025257,0.014500843973298774,0.6758966018159822
-0.3332983400415403,-0.8877183544613124,0.5115143595667138,0.006991134930440501,0.14343497261829669,-0.06737097537326135,-0.004075942111534822,0.7137056120971049
-0.2519528309663305,-1.1722649461402515,0.4688324693876382,0.16389895578696026,0.20716410614464614,-0.03366552780028024,-0.0064300783559076155,0.6958055017538686
-0.10145558197162535,-1.2615360935636464,0.3667948420403277,0.2607490044005067,0.22090945505412268,-0.03078705891719687,-0.046260114825116855,0.6028669331359944
0.07125449994260442,-1.0753983880204867,0.22371230124422395,0.22849870464382713,0.15093903552966995,-0.07517575657010893,-0.1523840832920119,0.4225161745993206
0.21297083105107642,-0.6269020971771145,0.07291224114401344,0.03934335732801101,0.007476999372300519,-0.14970611359079097,-0.3150394033090884,0.15861083144593455
0.2739825175663604,-0.027037710097435295,-0.05122741023438125,-0.26775095175700836,-0.1506466763939557,-0.21296214199432797,-0.4917690167445383,-0.16227026793699634
0.2212091938951944,0.5552784126895233,-0.1265748325678317,-0.5884285865531883,-0.24056929922282788,-0.22292658858802564,-0.626547338700036,-0.49286414807201273
0.054783012587474436,0.9611307931756085,-0.15145233669320765,-0.7876231163664142,-0.19825422146181132,-0.16260198121303956,-0.6708221717613875,-0.7772158539516546
-0.18048230390541004,1.1059218496913306,-0.1452701916495494,-0.7562416407521313,-0.015397618756969154,-0.05281398745607067,-0.5976216706223323,-0.9671787527941319
-0.40127020453232115,1.0099775350739766,-0.14075305359566748,-0.4644651109328564,0.25154789704572766,0.056734546468454126,-0.40638674159097493,-1.0342807142982986
-0.5150853543479866,0.7814484799108768,-0.16960465226505758,0.015487048637756379,0.5047743740574152,0.11473873211890556,-0.12175871562121343,-0.9717065292892373
-0.46312787924615223,0.5596693556707872,-0.247299625044993,0.5311928391140666,0.6462245150055705,0.09832597614054436,0.20948300678326415,-0.789564112539478
-0.2544548969861564,0.44536540340791725,-0.364618520815308,0.9087039336062723,0.6147093625110781,0.027105433637274693,0.5229931736993277,-0.5112614639292562
0.030749617552292673,0.4511577661301031,-0.49048421828275884,1.0215163218045666,0.404888538957207,-0.04803956304953008,0.7468869880628902,-0.1751016264876783
0.27575024202104526,0.4979884108861739,-0.583897939095113,0.8381479221931165,0.06629699278697651,-0.07432649060049779,0.8201533416374095,0.16323225431570942
0.3845660158178009,0.4613620097325167,-0.6076271778049532,0.42816794127931007,-0.31233532138623493,-0.025910062015451527,0.71544899999518,0.43653873343085253
0.33184733708167696,0.24465562592761178,-0.537225300255159,-0.07194907151583974,-0.6277122692089279,0.0848623088911764,0.45549499597491044,0.5852755634816378
0.17699485230862122,-0.15949144064850262,-0.36471874784771774,-0.5129716504544168,-0.790726644453373,0.21761606578891707,0.11242571425837707,0.5836905560989338
0.03261946996990026,-0.6533453055226826,-0.1007925691151204,-0.7815113937939998,-0.7533989100514185,0.3253542433384173,-0.21276539618153423,0.4572753336805078
0.002795270294752851,-1.0730815034761825,0.22203263275281726,-0.8265711417410339,-0.5261715916660069,0.3725450250133967,-0.4235252335792131,0.277441905207219
0.12464613379642654,-1.2627627435049522,0.5483796348724728,-0.6620925079473899,-0.17828388569226294,0.34220635396456384,-0.46084441925698577,0.13189081326727878
0.34615810462030167,-1.1455450329950998,0.8079167854951771,-0.3531755026812302,0.181552895043582,0.23465615837402112,-0.32398404204589476,0.0839953143626368
0.5528768921077509,-0.7572463573868243,0.934894767190203,0.005373390815019255,0.4397392551652887,0.06497586875556406,-0.07162082774677142,0.1418218634363291
0.6282674922771433,-0.2288320914511186,0.8919573101779249,0.3133956811038502,0.5162579143622779,-0.13767822675384314,0.19766018471367383,0.253573254146118
0.5139139732911708,0.2693639257562777,0.6846409691411542,0.4903910899317106,0.39251208927165443,-0.3319308082384506,0.3801008409526822,0.3337764353917992
0.2369296063624348,0.593202494576422,0.35845790639724334,0.49735453639335314,0.11701481124825347,-0.47146620893913516,0.4047977049904177,0.3086113562311478
-0.10863569849516365,0.6723376566376732,-0.01714841795837531,0.3488946814462324,-0.21394770482693926,-0.5174806446837278,0.259743998918082,0.15678096900768648
-0.4134313699187699,0.5243810149028665,-0.3670854798683267,0.10972093630423811,-0.4927350431344104,-0.4512445801390235,-0.005248191791801527,-0.07742507163847302
-0.6064785172096231,0.235657112775765,-0.6247761762012588,-0.1257798968433503,-0.6379250980797249,-0.281493929810484,-0.2989216044327186,-0.3070353486595715
-0.6803423953781996,-0.07916989881685536,-0.7436383563467069,-0.2660431610990374,-0.6167181815998807,-0.04471448377807472,-0.5219267447572268,-0.44763572882648095
-0.6759660200254569,-0.3205951260148406,-0.7080186592535052,-0.25656636989650095,-0.4444934878623052,0.20115289829313468,-0.5996853177346354,-0.4578613898856588
-0.6408295951673797,-0.43420608183001946,-0.5395130015680827,-0.10248252178589275,-0.1669728007540274,0.38915534194499685,-0.5050391288977222,-0.352707148734653
-0.5902501416483645,-0.4174746462875878,-0.29120791715809263,0.13172118600315988,0.16058005423433402,0.46152361686571236,-0.2660382887759741,-0.18607340696158162
-0.4978389969837255,-0.30439405519721535,-0.028454922492779634,0.34769705979528664,0.4844523463191554,0.39022150207072065,0.04250966024678014,-0.01777873315348658
-0.32036791266460574,-0.13903199602832453,0.1944121524600127,0.45419200707511836,0.7525243219106678,0.19156610190346965,0.32198474070105215,0.11363580218031422
-0.03924721039949668,0.04641945100250966,0.34760407324818793,0.4050954061267087,0.9133647366506022,-0.07469393338170865,0.4811221288171078,0.19932065168222302
0.3094800557778442,0.23789408709392953,0.4231160117487007,0.2168878872049355,0.9252305630701922,-0.3251270209654635,0.46558063044897136,0.250724967213774
0.6371382254750437,0.4298252698710539,0.42181762199518236,-0.04172854967452684,0.7744336333372296,-0.48345941532972964,0.2766017926058496,0.28229800558710516
0.8375254375491811,0.6095995460780542,0.34363231729746035,-0.28107068665201057,0.4900781474287539,-0.5075763056950624,-0.02675301807335057,0.2965496983547152
0.8369193440595122,0.7483995964441587,0.1905702798870431,-0.4265214550847424,0.14125019117499696,-0.40040746156833923,-0.34325745039603905,0.2778020142162351
0.6321982801591757,0.8049338119379479,-0.01862368949800616,-0.4439470227304238,-0.18576089839151844,-0.20241138573381168,-0.5607931012998627,0.19745007820075827
0.2965578964543808,0.740095727223367,-0.2350047340814038,-0.3469021676549312,-0.41914838478904937,0.02759868101798855,-0.5955947565583485,0.03061032726647766
-0.05059793285862799,0.5352219081272724,-0.3837500640259269,-0.18669212004835678,-0.5258751068812034,0.23389238815919916,-0.42546961776117753,-0.22059801212028535
-0.29463135329428164,0.20583876523027464,-0.3932319844861042,-0.031290750909535925,-0.5173455254640184,0.3803216730860971,-0.10121584838943244,-0.5083335031081219
-0.3726155159975521,-0.19520927656631426,-0.2367029728581965,0.05966332170103665,-0.43589605682148824,0.4576354660315006,0.27165511954689103,-0.73997826469434
-0.2944513107064433,-0.588019521369719,0.0400283623793759,0.056717812128624236,-0.3311557153731819,0.4797785466297276,0.5740461690801688,-0.808505363721263
-0.12998351034087405,-0.8873482020000822,0.3280500641304011,-0.027577785768000348,-0.2392652153104539,0.4704275420673153,0.7185952629093827,-0.6451547849636226
0.029347178908018936,-1.0286311903953718,0.5030935048928559,-0.14252551240296013,-0.1747789415063549,0.4451727401721276,0.6793358477616184,-0.2675573636661065
0.11432210423487577,-0.9882450495407401,0.48699345265022576,-0.21981717977825596,-0.13668179707020953,0.39829157304777374,0.49459466976481187,0.20960732662770332
0.10627806316556525,-0.7897127256973394,0.2877136335506396,-0.2036538007051487,-0.12096344125016185,0.30330472401910885,0.2444480872086934,0.6166756355916504
0.03809238723597222,-0.4932880263226597,-0.004958271518350597,-0.07674541122441021,-0.12828860070053416,0.13105548853363225,0.014090181891590057,0.8066673991527892
-0.03044859682873602,-0.17307537163251718,-0.26505527972910686,0.13023683340724698,-0.16008643008948067,-0.12196342060923612,-0.14111850375018553,0.7270503002673385
-0.04946031781454298,0.10908749861606303,-0.392018993467688,0.3494224047605209,-0.20741634137050408,-0.41288623863587837,-0.21467108816006106,0.44517889420060874
-0.00867046764812658,0.3218374432325468,-0.35637814148588487,0.5013683251590022,-0.2450634478634723,-0.6575212555089448,-0.24384797704835903,0.11258917426144127
0.056527977838916776,0.465966811306219,-0.20844369719356257,0.5259927582467184,-0.24003732285735863,-0.7652457841382282,-0.28200010443943047,-0.11292380602853634
0.08685520322487095,0.5587751412615265,-0.04857339103419528,0.40822867877117763,-0.170984430034741,-0.6870926430321045,-0.36101299970888234,-0.14599062194736454
0.03619223330270744,0.6110472790947874,0.024928471937506424,0.18771790060698576,-0.044313810134660764,-0.4478448137578478,-0.4645553376575585,-0.011997596149210796
-0.09851175406627895,0.6131367810795056,-0.034274828816018406,-0.05482819847853844,0.10648449491934199,-0.13943788081634642,-0.5297290502681367,0.17368735243786876
-0.27225641489536445,0.5416876054287683,-0.19545779971052885,-0.23225996045175407,0.24018969976257493,0.1237278224098501,-0.4797946604316997,0.2724241257067512
-0.41381611621095105,0.38333835381428505,-0.36275899945760265,-0.2913315979059609,0.333679850681396,0.2620963149731257,-0.2718591431897389,0.1978657842086863
-0.4601576355390529,0.15742042388381605,-0.42053825546804346,-0.23657803911115405,0.3958468849679987,0.2667065972397097,0.06742556192679688,-0.0398771248230664
-0.38355682936112756,-0.08173056164835824,-0.29235718161201196,-0.12260158866248033,0.4581879036222742,0.1931377223956401,0.4406415742615881,-0.34318680317770844
-0.1990577826484002,-0.26794042034246673,0.015244179700167084,-0.018677205091690786,0.5469765720012236,0.11986098990757744,0.7170329178982576,-0.5811764803075373
0.04633689723847876,-0.3571836043726881,0.4077065540846634,0.03204484456272723,0.65592837517759,0.09777511055443709,0.7907537069844284,-0.6573723593992297
0.2922714282037141,-0.3489861064383982,0.7403167776607039,0.03271111247636817,0.7391201027147887,0.12058587194849041,0.6298828792363805,-0.5536860795427729
0.48169941750142775,-0.28173885503844676,0.8803013088060376,0.02074729765230141,0.7307120042389365,0.1323930952287401,0.29123767105299064,-0.3291347958598255
0.5721896939683336,-0.20747016536213594,0.7625562925062934,0.03421895560477845,0.5804659085762767,0.06825622705148024,-0.1051572647929224,-0.07859324372403813
0.5430675853216751,-0.1637013217659323,0.4143807820479461,0.08069454463193054,0.2841801028774495,-0.09504937852728003,-0.4271204208256183,0.12083034956820814
0.399835742256372,-0.15835077926758623,-0.05748428201767668,0.12930192277745323,-0.1083364740076609,-0.3089030973254352,-0.580956196279957,0.24347866060378362
0.1752303050470427,-0.1729221280714444,-0.5070520619386681,0.13063682157273285,-0.5114692051576342,-0.4654019560274704,-0.5396641147761818,0.31188599606263334
-0.07556490780333802,-0.1777525086390963,-0.7983609450291932,0.051545054225441415,-0.8371376822436342,-0.4508297069599035,-0.341254758622757,0.3642669990803952
-0.28773666880287646,-0.1479169986658569,-0.8472092195056254,-0.09742061766167312,-1.0253631493831963,-0.21236289587972865,-0.06514468954595769,0.4178700980170631
-0.4064695845989218,-0.07200093776506596,-0.6446222648230246,-0.2599041091511873,-1.058574607255521,0.20027671237182873,0.19779352003934458,0.4530078202100326
-0.4068535951671321,0.04620305942045323,-0.257612076911302,-0.3599467380936277,-0.9575740793409525,0.64415473416728,0.369137373448833,0.42678801139576966
-0.30419254181545413,0.18872404689912928,0.19186945192140442,-0.34242570775064346,-0.7665194437922485,0.9420056084734983,0.39794754809520044,0.3058277667265815
-0.14744781839957627,0.32487219383062893,0.5642126963564752,-0.20489535107083412,-0.535477476503501,0.9630144608003008,0.27104837775401447,0.09588104208316844
0.0026418233045328015,0.41512769464616844,0.7457633034055656,-0.002601408442551337,-0.30475771543216673,0.6858133281732091,0.020874233711743333,-0.15086072008265794
0.0998040026780572,0.42084355021127534,0.685950978793771,0.17629565358764768,-0.09325876979993039,0.2113272417935034,-0.27449559742161045,-0.35625533351173627
0.12941825028318144,0.32013287138546065,0.4154891755610588,0.25177939607342814,0.10466385239008741,-0.2827143384262581,-0.5084456598088948,-0.45379345059171344
0.10937532870022285,0.12455642771474985,0.037631147232158206,0.18812107636517886,0.30907861967325106,-0.6234154887712787,-0.5827417393101647,-0.42234990958725244
0.07610936547483772,-0.11377132916424361,-0.3075297089103676,0.008374138962856081,0.5327709457787269,-0.7184406378173903,-0.45259616931244473,-0.2962982633625459
0.06307936457222407,-0.31436812456094027,-0.49549162399038477,-0.21706418755362938,0.7589805925306502,-0.5875422650515462,-0.15676560404118195,-0.14544583127623242
0.0816675418467103,-0.4001477912470344,-0.4670602093351602,-0.39919939465375165,0.9340153310724861,-0.33762670638668146,0.18902128908765545,-0.036613173149877894
0.11436819159920121,-0.3348930592280685,-0.25333250426743026,-0.46171020508385613,0.9843333486206962,-0.10047794251803635,0.4401796094082302,0.00018517629026836723
0.12495595313073941,-0.14464801031592492,0.037512702635389764,-0.36346758614839036,0.8535637220991064,0.030937056547345645,0.49322368405490674,-0.018025271743565573
0.08089187847695796,0.09176085554441397,0.2676857270184157,-0.10934245421571392,0.5410919721112255,0.03703789525611875,0.34071659048379,-0.04383183962094364
-0.02409937896374195,0.2793533093739916,0.33068875849997204,0.2489825538529366,0.11942460780231602,-0.03396447728846935,0.07826467049546701,-0.030372603953759705
-0.1595316272487279,0.35056342029285603,0.19809667640082085,0.6218399564021654,-0.28389389598646886,-0.10264154282214032,-0.1435714819926133,0.04208668595418615
-0.26612665475613345,0.2924540854735659,-0.06873565196426792,0.9016733115432992,-0.5363691082571034,-0.10437421224643009,-0.19710888085265532,0.1570993102121551
-0.28060850097542855,0.14518630170377858,-0.34719270622072995,0.9935816649703335,-0.5612354103139091,-0.021796622198616677,-0.04228287109582995,0.27221986635216533
-0.16809611008067907,-0.024070410148866826,-0.5096177510978196,0.849419013321509,-0.3784519538124437,0.11048226315636618,0.2554264139726342,0.3399148959573978
0.05239795186318082,-0.1554962416116317,-0.48205220150523154,0.4930061339492151,-0.1019896750139831,0.22811428882242357,0.5593363588065212,0.32705619328749574
0.3041364375367561,-0.2213596526450102,-0.2780828364099471,0.022674097500036895,0.1101793307494472,0.2723727034126244,0.7262277283322598,0.2251486427254098
0.4779676358208126,-0.23115307519724304,0.008977556344874972,-0.4170911479327812,0.1318167488223491,0.2200148711826654,0.6686800981338703,0.051239604333171436
0.47985223850664227,-0.21798639245546272,0.2522597521489351,-0.6898889551617238,-0.06733550637117516,0.09358031934693112,0.38917913236910234,-0.1562675727675454
0.2787558573049671,-0.21461579311909448,0.3528973737198561,-0.726012860735973,-0.40192923397004626,-0.05147511782843036,-0.024871126979804512,-0.34449394745127826
-0.07146766380996261,-0.23052080248340026,0.28607168218753865,-0.5549832021646343,-0.7069597246870197,-0.15521442483110118,-0.44051552533092614,-0.4571595570477215
-0.4502912643156998,-0.24164926387436828,0.10912067103951631,-0.2906805281833089,-0.812904868199544,-0.1826975042665021,-0.7353640192524727,-0.4515271757783466
-0.7202124478179482,-0.20092624555013402,-0.07092603580436903,-0.07355676345638086,-0.6256612688296819,-0.14016168495140527,-0.8457354803560858,-0.31758263107396534
-0.782002738044755,-0.06802358043258333,-0.15282094086705833,-0.0005503061168955088,-0.17509656400784804,-0.07012197569751481,-0.7851229738281036,-0.08929215032191136
-0.6093580168526921,0.15610739936919668,-0.09131858646375016,-0.08108530894630382,0.3904713485184044,-0.027194447174897537,-0.6253222005884441,0.16280318825982906
-0.25153132343643336,0.41184245176530837,0.0824674895811789,-0.24158330148034418,0.8630803977716941,-0.04561363415036276,-0.4517052544045582,0.3592633313979586
0.19015019719606788,0.5964354677491872,0.2792396003839296,-0.37227132601487184,1.0622317802850616,-0.11513591108687216,-0.3177086264876948,0.4471282137232567
0.5969447634467743,0.6100297462791782,0.3973306744956571,-0.3868538519044109,0.9118825520956926,-0.1805930752871902,-0.2230685197322261,0.42247663582968303
0.864891526761796,0.4100698610780804,0.37257559043319605,-0.2615873343679906,0.47320166496926935,-0.1695038852948125,-0.12568571187313904,0.32601969492170335
0.9275666966671801,0.04397109335773329,0.20856316971371303,-0.03650236007961024,-0.08139391348037149,-0.0358009226185542,0.022611100920648792,0.21468304608094008
0.7682494111112789,-0.36083086785672686,-0.025417498146829032,0.2143743089362688,-0.5415702610765711,0.2042214724073952,0.23875740929656716,0.1273075450915033
0.42231823023244286,-0.6482639499863504,-0.2260651109238842,0.4212136207285746,-0.7472396582990226,0.46657309738590685,0.49087300906457004,0.0653410575361454
-0.029926942848981956,-0.702653324393064,-0.3026125295581798,0.5433009140665045,-0.6520884959740352,0.6327967141846447,0.7089888194349963,-0.0009720271340382936
-0.4800174015795259,-0.5014356463156922,-0.21857708377752885,0.5723683895681533,-0.33473580452306445,0.6083635431752714,0.8167317128662895,-0.10623794274918034
-0.8160380087200226,-0.12548958800407486,-0.011033257999176765,0.5205605256074609,0.04509885222446946,0.3765573165439138,0.7666029453229196,-0.2603755983762705
-0.9511268129495571,0.2777273184607113,0.22242550131469188,0.40568433820835964,0.32266937579882166,0.01701923371982001,0.5620868459999395,-0.4340685360085914
-0.8490394823853622,0.5597836695864964,0.3654835036203933,0.2435396264069077,0.4005597630181234,-0.3250973446807547,0.2586049321176724,-0.5680663583056352
-0.5384563740243993,0.6336056938102897,0.3352899984006805,0.049718072657765004,0.2851957076222438,-0.5065799570978116,-0.05479444714152675,-0.6010967238874493
-0.10866233603039205,0.5034633317006667,0.11987046750957134,-0.1537306661591671,0.07314483046162336,-0.45596187107377345,-0.2853639691999143,-0.5006550841669076
0.3157866191796344,0.25104842584247383,-0.2164690578651633,-0.33478646206958446,-0.10370584883048181,-0.2087615228724744,-0.3688987889447503,-0.2802531419496582
0.615557353416017,-0.011744614377880743,-0.5592740837730755,-0.45693623662415467,-0.14615963933438586,0.11033306586086965,-0.2949092976771629,0.0045943773943061175
0.718056748189853,-0.1972923228250062,-0.7867567145977125,-0.4924861997957027,-0.035428196355933576,0.3482471112903544,-0.11562227693729502,0.2779332027226097
0.6222203867057188,-0.27626238544177834,-0.8115002203226559,-0.43587225831930076,0.16208931147969144,0.3955381988626867,0.0682774203392923,0.4714477006032159
0.39408557441369935,-0.2762340683409803,-0.6087404764666956,-0.3081288369324546,0.33314025490531207,0.2344575691877409,0.1456940732529929,0.546962979889176
0.13427201069285818,-0.25040565071793525,-0.2254208104971361,-0.14867224938928733,0.37666981455710247,-0.05850135960730616,0.04595206867231398,0.5050371902758712
-0.06692920993737053,-0.23781763806052553,0.2314385429844636,0.0022565784556987053,0.25161913883760173,-0.35495557140661954,-0.21962251294650442,0.37782297979937396
-0.16508965538618417,-0.23878332041608602,0.6249093123255741,0.12157393122306108,-0.009165185933947191,-0.5396610850986864,-0.548981478860265,0.21142604171120066
-0.17211355976496986,-0.21845983637768354,0.8303155346977176,0.21148574453260305,-0.3201344179045634,-0.5641364445327549,-0.7847197923587855,0.047597848915507196
-0.1392889819507226,-0.13514459896013659,0.7781990346531487,0.29175912242356705,-0.582144976225381,-0.46084513702442476,-0.783218012841781,-0.08605602773373264
-0.12327516845778336,0.024384351056899328,0.48381419284741284,0.3790225217325131,-0.7180046763508623,-0.3128750665125347,-0.487638301796473,-0.17466075844945636
-0.1528921357460745,0.2255388463898013,0.0496467127896787,0.4653465656097163,-0.6917813631752896,-0.20002050600919563,0.03195238011224254,-0.20927864339329175
-0.21463447759142443,0.39691827101979915,-0.3655858708886117,0.5117962858405584,-0.5111136778961698,-0.15398946076815678,0.596016990853194,-0.18407918738017345
-0.2652301878587609,0.4660540290645879,-0.604744661012059,0.4654134917532163,-0.2186621497769939,-0.1467786829463872,0.9875343009414401,-0.10167645453632707
-0.26285441352929645,0.3972378320235006,-0.5755364278829072,0.29257194373782525,0.12058900816042148,-0.1150081975845366,1.0465227373278965,0.018311799218034414
-0.19567191047160679,0.20834402472134939,-0.290870620432921,0.0083078476143474,0.43256916566856096,-0.003111010557665803,0.7423038952264744,0.1371804251008133
-0.08836152561390039,-0.040629789435298776,0.1344248003913639,-0.31885607647517655,0.647760911289927,0.20002038628969432,0.18945029165163008,0.2074931702141915
0.016447854736196702,-0.27623152172372234,0.5309829481223488,-0.5924158768421042,0.7161311561822034,0.45058797491840863,-0.39952517689189954,0.1925843267683978
0.08717290781101493,-0.4387674842215393,0.7450910653082544,-0.7305382414838553,0.6218408345767484,0.6701622290321497,-0.8026878273488423,0.08448448572774449
0.12195117058784205,-0.4953906886290737,0.6997294560573165,-0.7024614505944746,0.39240529259082496,0.784843173117453,-0.878860454892492,-0.09006093033272312
0.14474525975069166,-0.4389550309799559,0.4201991343790459,-0.5392224039938873,0.09561665367886564,0.7617448571081632,-0.6208805246759143,-0.27852289452032386
0.18287041085815725,-0.281570335715389,0.015901031308499916,-0.31377161807135406,-0.17885959516997885,0.6229203078789354,-0.1509743917761026,-0.4217161158640585
0.24292236402468542,-0.05150653357659143,-0.37027931906800865,-0.10244334435513634,-0.3489644266220442,0.42935433749385554,0.3370646020352481,-0.474680031735077
0.30269547441496997,0.20559591285718656,-0.6209102443986397,0.04996494366178527,-0.3697381512354894,0.24444943496342791,0.6615716742518856,-0.4211806601802036
0.3246448262604299,0.42800085098979485,-0.6859281241425634,0.1422287619967473,-0.25005619671425744,0.09831320727146738,0.7251764700502986,-0.2767065456660554
0.2814052916124525,0.5494094515297547,-0.5909563546521185,0.20169630742339917,-0.04897530910029216,-0.0257407566114796,0.544777971468293,-0.07989341940301137
0.17627603515318344,0.5214630650004667,-0.41062337175046265,0.25514457739033136,0.14696685388092923,-0.17357280290387792,0.22903521806324317,0.1226368421125245
0.04491863246427265,0.3379131581279378,-0.22223278006269595,0.3059348244078299,0.2567211356979462,-0.3812240495082483,-0.08209555109614167,0.29114882979657636
-0.06386031515008563,0.046011432329204176,-0.06606244929159989,0.3323356311630828,0.2361212727613014,-0.6381043755413918,-0.28381508396259386,0.40231154295845933
-0.11709044513515875,-0.2646923730790874,0.06457104838952282,0.30760419962609353,0.09639921061992254,-0.8760559914971324,-0.34646792729060716,0.45131198353583885
-0.11846362573417671,-0.4935957461394848,0.19889970575571317,0.22757707456933482,-0.09832716394305704,-0.9939007758368381,-0.3132966086560974,0.4470714001494555
-0.10715463759676787,-0.5659841440085024,0.3487877055835662,0.1251122681766625,-0.2564289308646505,-0.9068939048100206,-0.26317518194931244,0.4034637440818601
-0.1333890973409291,-0.4585735473870536,0.48382615921015837,0.05814544763690249,-0.2993611332045493,-0.5957675436307726,-0.261130001831433,0.33104351487629013
-0.22396135712773396,-0.20438792738810851,0.5419967862741601,0.0756955397624835,-0.20045638856103523,-0.12897602695619703,-0.32148624439803514,0.2329866649904885
-0.358918629594858,0.12076382412474679,0.47079447943289116,0.18217143562983615,-0.002096928548578544,0.3553745319382546,-0.3996502415731811,0.10647111110235505
-0.4759813836267005,0.4214878945369177,0.2707439421062402,0.3236796354596059,0.19984015164929175,0.7020150942113391,-0.414930880714607,-0.05103148838552668
-0.5030343887970181,0.6081359590048988,0.009637265495571506,0.4082756768089946,0.2983163013496087,0.803059493054681,-0.2936455042068229,-0.23235958861163722
-0.400748958060259,0.6205988982532429,-0.20614321719038695,0.3522873748135238,0.2239755424131389,0.6452451443290372,-0.012788607954333175,-0.4126176293837726
-0.189331440847924,0.447605178921022,-0.28915658209085593,0.12838380722892614,-0.02201516036031458,0.3162574318954839,0.3772048015173941,-0.5491574156705894
0.058117233782160584,0.13572655601753675,-0.22320121579973207,-0.21230435633043376,-0.3644938374677312,-0.035263467120138836,0.7641882375325326,-0.5936599772871758
0.2529304806236801,-0.21923494136567792,-0.07694425319186282,-0.5589311432919091,-0.6805779138230883,-0.2678531459519228,1.0176275909400303,-0.5129968487129364
0.3375150819519556,-0.5011396392297441,0.03241237022736621,-0.7927787948719336,-0.8450737614887638,-0.3096123826408195,1.0433293180801906,-0.3090320546058524
0.31461472613591407,-0.6149944488049343,0.00649375688650213,-0.8447411880620715,-0.7775654319993008,-0.18397810309330856,0.8224376723106195,-0.026768963634219003
0.24275245210884713,-0.5242499547585898,-0.1740911729617856,-0.7263475550714334,-0.47294140161712417,0.011539632932923738,0.41616916467360543,0.25490696057701184
0.2002878232741936,-0.26665093038533766,-0.4316572987500401,-0.5163864585618347,-0.003560225387754329,0.15936853877915044,-0.06350919457819793,0.44835070736350097
0.23785054512803344,0.05957902797443268,-0.6265688752156301,-0.3108998329201071,0.5075736137478793,0.17994549398597642,-0.4996691192088445,0.48972400702845925
0.3458245126261412,0.3339594731475676,-0.6271288833243391,-0.16654979890417326,0.9317844345726756,0.06679218852260134,-0.8087558219776453,0.3660463502600956
0.4559110986914487,0.45984732269612255,-0.3777945306996227,-0.0716889565182523,1.1788529545327886,-0.11484862730561082,-0.954980258763847,0.12389843617926422
0.47707277532712283,0.3984760801898978,0.068009389591424,0.03777266176749551,1.2204712298533973,-0.26202973921307515,-0.9403498013437732,-0.14635749312560004
0.34684789881534905,0.17769209924935905,0.5650791823180719,0.22834287201587045,1.0832910252466426,-0.28355121877128037,-0.7845806320820224,-0.34555390988901835
0.0705085494530014,-0.1249097915982056,0.9346270455261307,0.5157699296002163,0.8195256383650111,-0.14243433659139856,-0.5129216973597007,-0.40462269040525733
-0.2727820262608565,-0.41313333689072546,1.0373871774966275,0.8409931130163959,0.4762842930705062,0.1266543068879796,-0.16008876943948075,-0.3099110630737774
-0.56070094344779,-0.6021893815967343,0.8307483190809452,1.0901862315277326,0.08286690771114434,0.43140122552403976,0.21761910251021704,-0.10445861549182035
-0.6815716597079979,-0.6372489285462557,0.38693733044544093,1.148383001740006,-0.34004220014046405,0.659857262383199,0.5392243261577209,0.13331755268500461
-0.5867764148987193,-0.5004970023755322,-0.1345485823042328,0.9572314466556526,-0.7614972689468013,0.7251841944686169,0.7166987538408391,0.32230053176763424
-0.31714328235907874,-0.21328783712846688,-0.5496655759111635,0.5461329609505765,-1.129382093819778,0.5979252154568353,0.6894348002781194,0.40814880771219136
0.011026335470499207,0.16321649342786987,-0.7238520523534888,0.022116695200463835,-1.3774461206381199,0.31313052884519665,0.4582309576169636,0.3785677598424963
0.25676954320531353,0.5342121474058099,-0.6271366786450161,-0.4740771947528738,-1.4463788291343638,-0.0485733834945307,0.09862958556093734,0.26135156719910735
0.3199801996813632,0.7923849844991456,-0.3442357075529887,-0.822754813098653,-1.305597678230299,-0.39543198032706767,-0.258213271777083,0.10958794486065616
0.1896785010906523,0.8538787051051626,-0.03149767558311405,-0.9651275558949167,-0.9640702929480309,-0.6577251506404292,-0.4736222198216551,-0.01878625996948602
-0.050793254183565006,0.6954485734105563,0.1606651967079128,-0.9121642629454022,-0.46820652741155194,-0.8044270777534451,-0.4594937973806324,-0.08067884267612463
-0.2661444380012712,0.3715741460926984,0.16081183953510172,-0.7236237574210591,0.10719608547755996,-0.8375666548851464,-0.21994062100761255,-0.06143634305285372
-0.33766026900934776,-0.0033680274960183622,0.006655141784128653,-0.47404057338379213,0.6694390193289854,-0.7717461607190181,0.14458186467115905,0.021654463845732413
-0.2218380893049599,-0.3036313955837773,-0.18255177980998535,-0.22611932713805827,1.1202277385392216,-0.6155405883620247,0.47564104331678686,0.12658644165914437
0.030358103886882225,-0.44685225556859287,-0.27438459312905417,-0.02149402738518533,1.3734402389312368,-0.3696534452592273,0.6234114440783879,0.20118236473429504
0.30047784051061693,-0.42467924748930547,-0.19438532357211075,0.11632929167255396,1.3783754386936202,-0.043608913281008424,0.5133671235263013,0.19975976840022946
0.45951096714529815,-0.29344306078738913,0.03662181202213634,0.17853741111362184,1.140819235493627,0.32278242859482736,0.18284591765650351,0.09746486654320917
0.42730865355546044,-0.1340291544073989,0.31537589836981644,0.17262768481468796,0.7293972930849046,0.6530313053057021,-0.23093474262975655,-0.10047583454986732
0.20939403845362456,-0.007687998576717551,0.5094311082948381,0.12448467483512578,0.25825182021310217,0.8537269372769045,-0.5480187333968898,-0.35630157516735794
-0.10356085541434625,0.06673984016953746,0.522418998836974,0.07334520247992798,-0.1512328963392705,0.8536927719424117,-0.6233203766165643,-0.6058473073192294
-0.3743957759953879,0.10561835306591555,0.33949973436956077,0.05820617143086246,-0.41409039243474444,0.6416171804317575,-0.41060174751810147,-0.7746245938314273
-0.48123879479008386,0.13395037362353635,0.03289361990855032,0.10208606509605696,-0.5100525977600465,0.2805175317876304,0.014886866368565644,-0.8017139800527465
-0.3741310222123576,0.1595157233512065,-0.27272822283455767,0.20264956990478342,-0.4824796214922409,-0.11041445481757022,0.4852203967243481,-0.6632370328218561
-0.09731239615327235,0.1641704290894771,-0.45687673523254657,0.33323677371352617,-0.4093488571399844,-0.39977475578795624,0.8086942391400352,-0.38375084998058756
0.23494355274297102,0.11639207331254647,-0.45508014857660145,0.4522606320288365,-0.3621304575637776,-0.4951720571582297,0.8493121560775491,-0.028278238400282808
0.49455403274973114,-0.004230022371601395,-0.2834986847129104,0.5162665980722313,-0.3729152229699278,-0.3798222687265809,0.5809407185999708,0.3215748535677025
0.5956368593397684,-0.18679277263012897,-0.02819544899772013,0.4929899564926964,-0.42353617753423595,-0.11832819014822155,0.09144744874031176,0.5948234851912968
0.5210794480668801,-0.3863464887064526,0.19353413002289083,0.37191651371411866,-0.4587254383555169,0.17139052739420907,-0.4621500612773115,0.7487068177906293
0.31165744062205764,-0.5409820211964228,0.2831729451530841,0.16915804791996122,-0.4154901698609621,0.3678506218514429,-0.9206698181542459,0.7718551473934423
0.0337240654500216,-0.5991115222393646,0.2036166716212956,-0.07651457377776945,-0.2558814966537242,0.3957294258313672,-1.1764860893739166,0.677512484446722
-0.2490713206795744,-0.5416728206062063,-0.002146595915276022,-0.3158398822104849,0.010208747907660654,0.2545949262802895,-1.1930109187284077,0.4948670423091835
-0.48561688415001525,-0.3878891224858225,-0.22623304419393556,-0.503455510941057,0.322382336705718,0.0153210724395367,-0.9933606023770589,0.2632303403483639
-0.6341472488707681,-0.1829906707591069,-0.3419074766498007,-0.607459795495379,0.5899521791257977,-0.2134901801194156,-0.6364327954863437,0.028098592179285155
-0.6615610015723752,0.02454366521285207,-0.2622250353854056,-0.6120791080260051,0.7273333117283398,-0.334317061382596,-0.1963652936006123,-0.16462140730355088
-0.5536565574844606,0.20402728507369214,0.015076757552182804,-0.5173377311390188,0.6889180826214613,-0.3035173517155875,0.24983248344994471,-0.2778687459259389
-0.3295364837052505,0.35079856650313623,0.3979113997096929,-0.3403707522353091,0.4877434869330842,-0.149516005040562,0.6302512018489789,-0.293492610917161
-0.04545131492653374,0.4775020372734045,0.7315943084335221,-0.11783882080875382,0.18975032523989926,0.04140015542092673,0.8869480674226273,-0.21831438424355734
0.2205211520602815,0.5944555637908343,0.8602412118080103,0.0966368587962477,-0.11381316655632774,0.165352910346553,0.9874862915481715,-0.08349133019509133
0.3976177844432344,0.6925350995276448,0.6933946112925732,0.24542536934219594,-0.3431019184856069,0.14941222523661715,0.935622071860577,0.0618408890026888
0.4503000561416559,0.7409066337306274,0.25059766232958747,0.2881462504252137,-0.45770351420846017,-0.01338284307981344,0.7735303841540649,0.16085122659355192
0.3908226944983353,0.7021866012122667,-0.3365735205090321,0.22128971235976266,-0.46286539524020814,-0.25847246315484196,0.568718875044672,0.16345578152708956
0.2709287375776938,0.5559324064338085,-0.8706146931657391,0.08448039619875906,-0.39394883044057866,-0.4762890576091719,0.38642394268294594,0.045051732057489774
0.15678516999372685,0.31602722370736,-1.166967800636791,-0.053012952512209145,-0.29184129146557014,-0.5592672214756372,0.2593464531197401,-0.17545272909958587
0.09824653551363186,0.031337577610191944,-1.131196111439689,-0.12228894532488863,-0.18481385264663108,-0.44929352505825026,0.17244151659415544,-0.4294462532399527
0.1064902882888449,-0.2315449448847104,-0.7965683993483035,-0.08804867594878486,-0.084105552266045,-0.16531491255895017,0.07421745959436768,-0.6150890069451541
0.15117924972752894,-0.41512608371966764,-0.3030909675427664,0.03305649959679459,0.010247190862226033,0.20146428850721362,-0.08981208739775347,-0.6367324572594323
0.17901943384107574,-0.49396325729080476,0.1701332950593719,0.18108066873049286,0.10106734854974714,0.5237759913335694,-0.33979406933832734,-0.45149731696660433
0.14412817926992005,-0.48238567472884986,0.483879188783343,0.28486062342414287,0.1875442785119794,0.6904932198092529,-0.640665227947098,-0.09753435758592058
0.033995866619922696,-0.4238712113940604,0.5903423281721418,0.29879835712384756,0.2604658287980032,0.6516931641152535,-0.9085290305200446,0.31491773239303356
-0.12291907262771655,-0.36850331914413875,0.5352034764319901,0.22292725028650845,0.29957801241449794,0.43677154699547355,-1.0415535847712245,0.6478308732210761
-0.271858653324975,-0.3502752621689715,0.4151525670435024,0.09693288273529768,0.2774517826497865,0.13834217944454147,-0.962421356926032,0.7924584971784209
-0.3598813800092898,-0.3747311458864371,0.3181842285267079,-0.024107241858878234,0.17389326401136887,-0.1299827220951658,-0.6555582892139317,0.7104326151714185
-0.36090927197458605,-0.42091137200430373,0.27969568571367703,-0.09552570597509713,-0.003424772387425155,-0.2822475031004641,-0.18458749603196642,0.44153243263587116
-0.28414097567842994,-0.4539313720434854,0.27494689143992346,-0.09779265070434527,-0.20588667105465144,-0.29274244000472693,0.31873740127135197,0.07988349399027048
-0.16375689663298193,-0.4401759908657087,0.2469261410785421,-0.03823125736569783,-0.3522192721181317,-0.1983473826285646,0.6948523522568528,-0.26587022173987174
-0.039251598990642005,-0.3580580836377866,0.1505313187464751,0.05537371740312329,-0.360276784787011,-0.07245206857061118,0.8157030206215173,-0.5102983268112091
0.060526502587823154,-0.20224360381394885,-0.012692684351080823,0.14484262030647171,-0.18913139709601645,0.013737573261720818,0.6407042373905996,-0.6140570781750393
0.1219698622513113,0.01607271923772034,-0.18879866979056995,0.1935725128395659,0.130301897304087,0.023165480133580732,0.2419960674925135,-0.5865016450435371
0.1421457511788659,0.2699716483302276,-0.2985155436450736,0.17826319190191847,0.4946569477155009,-0.03458083681583647,-0.21805738891461612,-0.46977195324590443
0.12358780135318483,0.5190387330203714,-0.2827707350416452,0.09618947941540976,0.7628687618544506,-0.11284610751441276,-0.551165545850864,-0.313248759277062
0.07455463630832518,0.7152358549977248,-0.14087137631446311,-0.03526692105172207,0.8143457320311652,-0.15358342271153824,-0.6211401454845166,-0.15181320904177883
0.012593987837969058,0.8131566857380996,0.06160583971450309,-0.1855974568647084,0.6049909542248872,-0.11738024942619887,-0.400090727593288,0.0014547534661510583
-0.03629148990501096,0.7829868763472709,0.22172754792485383,-0.31995424055226424,0.19318894375670523,-0.0037088395670003957,0.021986548013964245,0.14729733021466662
-0.04766917473898852,0.6231024583554265,0.25061724313163347,-0.40653879238362217,-0.2798733233289854,0.14919414191925712,0.47686150377681086,0.2857406642302196
-0.014026344072292954,0.3680830241988371,0.11994146459637063,-0.42359797474169414,-0.649303940429678,0.2846850822180187,0.7878554373125989,0.4061695751031314
0.0450656115025966,0.08629410849609401,-0.12168311885083168,-0.36753813854149414,-0.7983655926339055,0.35550213379695794,0.8393263178069476,0.48831899055042033
0.08766021816150586,-0.13829038637894378,-0.37118695310642225,-0.25845990222530163,-0.708464080599901,0.3418018384275852,0.6182168938165706,0.5127523090175473
0.07048272744591805,-0.2386926412190167,-0.5206812499962101,-0.13539363698508583,-0.46233790894249915,0.2509504896226012,0.21357612015997968,0.4730733577555399
-0.0233663625432858,-0.19894357881997157,-0.5090086878191199,-0.038566341660544436,-0.19912834399245988,0.10470691697333391,-0.22272592878055206,0.3805807822543365
-0.16674127650979997,-0.06894297835793073,-0.3495544611373433,0.012444762721426568,-0.044981958227217234,-0.07348185475435673,-0.5364963722579419,0.2575657660943151
-0.2942740669037135,0.054084838482774546,-0.12040221199538202,0.029524426343446836,-0.05456678639467884,-0.26236535049145554,-0.6286778839103103,0.12505508919564398
-0.3319170177945277,0.07274443237680178,0.07823230403117067,0.04691881751950412,-0.19092237882734645,-0.43808617914600373,-0.48836154377654023,-0.004325050438729493
-0.23529005889856605,-0.058456436512509174,0.1766550380037867,0.097150570013724,-0.3496638892967365,-0.5674086799718724,-0.1904455128562774,-0.1232989994540878
-0.015357634623630883,-0.30510672741144085,0.16923056442366047,0.18719053804619837,-0.4120291118055447,-0.607994183604285,0.13893623842293568,-0.22203887350433885
0.2630733309380887,-0.5659795983730431,0.10998190414096694,0.2903494162615815,-0.3002272326046511,-0.5221956341131067,0.3735504955719358,-0.284838773543017
0.5085951176043851,-0.7218593595260814,0.07384069825004591,0.3602339005785775,-0.010960030741547765,-0.30200759961527296,0.4335084100868788,-0.29542219520514085
0.6406103055900121,-0.6945378728929935,0.10755931492720315,0.35965285783226725,0.38457237931119176,0.009436819752645695,0.3098850118721703,-0.24717214901445417
0.6180041882905314,-0.484185910431604,0.19995954678148503,0.28662226535278007,0.7700687067897223,0.31961311776005874,0.061051583212382875,-0.15179682728229524
0.44840944617650047,-0.16585354972190033,0.2891873042469021,0.17909092216054573,1.0271919393651359,0.5203616261180702,-0.21485347762238027,-0.042047118784035296
0.17965703556684468,0.14981212813602776,0.3023615019663989,0.09260363549672611,1.0743167077009488,0.5399476453494767,-0.4195361705033895,0.0337237786206318
-0.11807213112775551,0.3667465480794036,0.20326832099019315,0.06402219784878502,0.889296094634058,0.3833285181763338,-0.4910160579115676,0.026561901816672482
-0.3720220014805049,0.4378401537685517,0.018500870166066215,0.08573958232381328,0.5131417779361523,0.13443414318560865,-0.4226012748493564,-0.0904137505543969
-0.525185437048586,0.37154705469182675,-0.17414939900722853,0.10896801008446017,0.03669012997682871,-0.08366470767541988,-0.2568537916613783,-0.30076344726077325
-0.5509852089957686,0.21638909878729493,-0.2873646513060705,0.07561407562426158,-0.42545173849110285,-0.16987466451803504,-0.059234934220532665,-0.5385673345467338
-0.4605194121016569,0.03748654720800193,-0.27032048199654846,-0.04045115617907692,-0.7666650459787773,-0.09440768920375824,0.11254047101822386,-0.7057662325947903
-0.29815633543838066,-0.10327166638004553,-0.13289335917037695,-0.20867169286541568,-0.9158778870407963,0.08986371293256126,0.22587017615369498,-0.7089674854362763
-0.12471680212119544,-0.15963889997230288,0.06276789222348327,-0.3508690604727651,-0.8521605010745855,0.2789221127936438,0.27116641272889114,-0.5013074347701528
0.00637605002360567,-0.10834047997104128,0.2349084216993642,-0.38168141990176885,-0.6040104704562649,0.37361737140062434,0.25003487392408913,-0.11137863644402303
0.06975283085313541,0.045607974463732506,0.319428337657966,-0.2586629312135243,-0.23779362387727818,0.3293738406168412,0.16933118887447923,0.3563859088205245
0.0755372059077354,0.2659374593474458,0.2934326096107835,-0.013705744605542304,0.15843029671497127,0.1735114024641997,0.04655316006371903,0.7562568224116221
0.059577818610556645,0.48871670689508534,0.1771880426051466,0.2524580167434104,0.4924569671876898,-0.017123650435750253,-0.0830290540838144,0.9602143588787517
0.06145202128961335,0.6372616312117289,0.018510966031741367,0.4114572022235052,0.686459189333671,-0.16326705629090296,-0.17064002761158797,0.9143167818123389
0.10213979479920927,0.6479445650829343,-0.1294434570020748,0.3656824363952664,0.6951415142016416,-0.2268439731298658,-0.17205471034260597,0.662404025277
0.17364655605061713,0.4975984255178738,-0.22622334841805883,0.09768366956939202,0.5187717525544348,-0.22599798917900804,-0.06927110498431441,0.32306130881678885
0.24556209317623548,0.2178197974712302,-0.25263236126861793,-0.3122105171007213,0.20515153246206103,-0.21434127372172398,0.11725669900256719,0.031527659749303945
0.28281398886350173,-0.11448118144381436,-0.2108090654839927,-0.7103593050644721,-0.16173260616458054,-0.23929110741155052,0.33234968796890846,-0.12197895165674819
0.26247512136344353,-0.40861790392360475,-0.11970556364322273,-0.9294411156921177,-0.4832464345138129,-0.3068805381274904,0.5035463859868198,-0.12469969989937049
0.18040076760829404,-0.5987156621636772,-0.008473658949363878,-0.8602490182654767,-0.6723499835160855,-0.3753742122306687,0.5647062695581788,-0.030737703951351825
0.04782677780323392,-0.6686633203011493,0.09143320150935844,-0.5042479642556389,-0.6792438275501285,-0.38090186264195003,0.4778843812472398,0.07938240421466806
-0.11455078655724794,-0.6496187065659984,0.1537381415396321,0.019670390620135775,-0.5097694256728816,-0.27785704848159365,0.24785917778825373,0.1406205211703108
-0.2782438861049182,-0.5921315156741533,0.16181760611055276,0.5214190592222746,-0.22754268706965186,-0.06856618324531083,-0.0748009814201866,0.12487318707541634
-0.4052449953497619,-0.5300325928975188,0.10996146811336359,0.8197834711489648,0.06639368975030549,0.19426427750924388,-0.4054356287522253,0.03898653316937013
-0.45096301227834656,-0.4585878797652301,0.0042163734866952195,0.8192545186513663,0.2717665678273695,0.430599677161132,-0.651515952960687,-0.08965766906759992
-0.37899490546257997,-0.3414322069969817,-0.1355153217244289,0.5485252104502965,0.32850005391710196,0.5666638647563225,-0.745909225902769,-0.22831160383839677
-0.1845299297487405,-0.14282456076741332,-0.27500141521290855,0.1446590241874176,0.23830814522446125,0.5627844326937614,-0.6731878109992258,-0.3500032069079157
0.08878764646005101,0.13549624532454227,-0.3719899482212341,-0.20895803263267493,0.059403453785971866,0.42550613821959626,-0.4753138973040892,-0.439889864327308
0.35543046988731464,0.43785450664155656,-0.3909138352289361,-0.36369889699618313,-0.12019516261163166,0.2011968598741009,-0.23225978682685447,-0.494793902879605
0.52146499662778,0.6715644965105645,-0.32045251965336097,-0.2700688883234104,-0.21687645374870482,-0.04497148606610904,-0.026423161717707866,-0.5143273987462917
0.5284673276041225,0.7502902291277364,-0.18323219979824842,0.004452139408030541,-0.1804403673469079,-0.2544838104139364,0.09171059355199919,-0.4889702561492659
0.38144150567385676,0.641064828896911,-0.028735812665788937,0.3132561880738762,-0.010673478031557318,-0.3929095477402159,0.12066694732892319,-0.3972720741409681
0.14359203514923352,0.38853409605383543,0.08989705959882091,0.5057674040640476,0.24166615118325893,-0.4523264972672401,0.10135129268712188,-0.2201403614030868
-0.09776265298972293,0.10045669593597732,0.14311491101988777,0.5015899153460118,0.49009366616330974,-0.44170406484615155,0.09162189974419355,0.034598094636585267
-0.2725880685042646,-0.10148667734869439,0.140352179833708,0.3252781247322207,0.6408593171421559,-0.37434173991131814,0.1350021817478445,0.31599028714078237
-0.3534412886993759,-0.14205705400074814,0.12462008612087033,0.0842599513831138,0.6267267449482338,-0.26015546454241323,0.2383244102345859,0.5382864465252113
-0.35393785233985664,-0.032156820358445075,0.14917117825698606,-0.09700194843997846,0.434449980296339,-0.1053585788609472,0.3685198937461885,0.6153058646774525
-0.3065762027948622,0.1357446301925546,0.24817898250206696,-0.14943227719129953,0.11436455057423645,0.08246966422739646,0.4696334724885071,0.5055717859357406
-0.23650499629517327,0.2375797428712298,0.41582033784451655,-0.09660580585864871,-0.2344071508039883,0.28790155773053794,0.4912855967483353,0.24337640059809457
-0.1475765450777867,0.18783525955708247,0.6036403575546921,-0.034434459184680626,-0.50013694160288,0.4833875940048689,0.4140210714535186,-0.06558583451690943
-0.02847428954716557,-0.009800041989603108,0.7371427537974167,-0.06522563782053867,-0.60220619177342,0.6297612915707768,0.2586596397054395,-0.28798717019694814
0.12585757735661035,-0.262064183448258,0.7440131162857578,-0.22713563320687666,-0.522341769155067,0.6833844167230319,0.07547492322411908,-0.32646456102581495
0.29319517396716943,-0.4376908756627936,0.5823989156206694,-0.46400013855257943,-0.3079957495689861,0.6100999899161953,-0.08008234034010389,-0.16874360414835324
0.42117487113813673,-0.44149085358833956,0.25903794271530706,-0.6550336582312967,-0.047306094277749226,0.40224773751756565,-0.17210768267810983,0.10607900532040683
0.4493564129262777,-0.2685909986869592,-0.1683502077333045,-0.6854737295577052,0.1692813142370228,0.0908746108678221,-0.1980173261442642,0.36802060714996965
0.34465473292528986,-0.008716200089137672,-0.6048063814434471,-0.5141556829295507,0.2802508903751219,-0.2554300262114014,-0.18638626967905453,0.5004121575250181
0.12687960914627422,0.20139349612365706,-0.9441573213576415,-0.19798855073241747,0.26506439120851605,-0.5490384257433648,-0.18011718234683757,0.45278738233069277
-0.1336904705847064,0.2514705311220909,-1.100288687593707,0.1390919441565108,0.13977979945701946,-0.7142763919634026,-0.2113929958748561,0.25660405294908933
-0.3464394531431022,0.11741046326025463,-1.0344249744775431,0.372749540919342,-0.05261985671170302,-0.7171952813690187,-0.2798882754942572,0.0003396495155941442
-0.44079553698704055,-0.12543692092410375,-0.7690232904829865,0.44152307408210173,-0.25056462573566257,-0.5778148790949841,-0.34756118783531625,-0.21818651492298702
-0.3949987794028624,-0.34310550720532224,-0.3823352721422936,0.3716217916776747,-0.38468544268528804,-0.35665934188372245,-0.3568058195239225,-0.3354947125625986
-0.2403472803663303,-0.41609012838746096,0.01575649070161149,0.2518781925874119,-0.3976324973643771,-0.12319375608134492,-0.2644917685226406,-0.3418365127836685
-0.042413487146023526,-0.30478009215739266,0.31926949060166127,0.176618577217249,-0.2698764352182193,0.07410154877181767,-0.07214885160815311,-0.2721379867444481
0.128438798896094,-0.07094974377587845,0.4612977180995767,0.19079637592627854,-0.036341784237219295,0.21837071940019395,0.16684118073168214,-0.1795085168927369
0.22254508060648498,0.15729725333027625,0.4360811632687616,0.2671256024603773,0.22172237355814883,0.31335018409795873,0.3680178283626591,-0.10798317579304258
0.22328728018649335,0.25797552480974223,0.29841616661044235,0.3249853012511692,0.41077325252249347,0.36409110517153026,0.45285146395016196,-0.07657569237720414
0.1457286833854209,0.18406796820829846,0.13904787445107689,0.2788781613370946,0.46768237566796633,0.3664399166409954,0.3828263213197733,-0.07796522047103695
0.026817654164390275,-0.010036802204734477,0.04532610776896291,0.09039853828029079,0.38658024390928003,0.3119747036023547,0.17561306696234977,-0.08825829337865303
-0.086994440906941,-0.1982093442970392,0.06361705515556161,-0.20373486734991653,0.21497274304953892,0.20130729889202478,-0.10171941940641768,-0.08117636904047718
-0.15156146469811327,-0.25058537294318006,0.179757389821602,-0.5031683731534947,0.023488886739508746,0.053289527284310585,-0.3581082651241768,-0.04033373015598023
-0.1355477532533293,-0.10316390875491864,0.32664199196281535,-0.6895900656811649,-0.1313002169079746,-0.09715410973502225,-0.5119022025114585,0.03406414535217069
-0.029640887951347727,0.20616071430404545,0.41633115974529245,-0.6824123825013114,-0.2294599656554156,-0.21108844304187083,-0.5191471142356229,0.124882944546093
0.14631508321968945,0.5518961910081778,0.38216405287000305,-0.47534269152500325,-0.2843942218056852,-0.26044330242188773,-0.3858746531598857,0.20353492598525558
0.34128252847962576,0.7776185163042305,0.21094248717639738,-0.13659410883900253,-0.3181316132094962,-0.23788792165380823,-0.16054379068648808,0.24024543709970345
0.4812046235037599,0.7679588846633766,-0.0496500325207163,0.22407405692872492,-0.33258114558078733,-0.15715786760568487,0.08840385614038672,0.21650982470077829
0.4907590897912735,0.5031805074615766,-0.3108826463216501,0.5020236600850939,-0.2975503993529188,-0.04506313351825444,0.2988664071756927,0.1345992654010843
0.32483329697005425,0.07176571984294446,-0.4803891677961661,0.6350662741454524,-0.1673566533402333,0.06852030398336775,0.4338138793953045,0.018444391027325695
-0.0028828577569509064,-0.36572393005513554,-0.5008291816383288,0.6171259611992028,0.08036207552323257,0.15630865067278274,0.48598980075770115,-0.09588847811640552
-0.41029235313100865,-0.6465893315285043,-0.3735773559898355,0.4875120172187334,0.40772306329152586,0.1945062918835117,0.4698833760428353,-0.17543376556360135
-0.7666565308754859,-0.6779807967641623,-0.1572326930020685,0.3056823400924665,0.7101309294788376,0.16502599148812697,0.40810341647516996,-0.20267586453105724
-0.9389074500618688,-0.47681828741543325,0.058788973806597596,0.12534753642261043,0.8536645226300137,0.06432231736711139,0.3199168547627555,-0.17869835328418923
-0.8474016419509888,-0.15882380347770492,0.1937175296192309,-0.020935059088798745,0.7420005355711107,-0.08474085712368412,0.2162463833850262,-0.11767570562441802
-0.5061018826182532,0.11698517870225099,0.20939017265712054,-0.12303032831582142,0.3759477025251578,-0.22938161573317783,0.10140573832653117,-0.03888179644729654
-0.025627778214048852,0.22089238252325194,0.12314934772496518,-0.1849492338262447,-0.13230243853034315,-0.3009088381588074,-0.02083797589052924,0.03817855816936699
0.42718983398269117,0.10851202100197407,-0.004672518265636985,-0.21543610541554345,-0.6039012425634657,-0.2443027375611392,-0.1409989076157036,0.09564595891004134
0.698236817221273,-0.16304204125649951,-0.10048203928946249,-0.22316082241169946,-0.8753392891878852,-0.04987013816090869,-0.2422826007407262,0.12040731277343436
0.711848175699868,-0.462311674214211,-0.10918649949458063,-0.21653514062147766,-0.8728854293770715,0.2311001144026303,-0.30661804564949974,0.11006588622668877
0.5007891043310921,-0.6390064599583558,-0.014336425333760679,-0.20465510766522593,-0.6395063105323657,0.4989454174417108,-0.3255643629269011,0.07730813526918029
0.18562051892418543,-0.5840681726761039,0.1588829712327314,-0.19633023547028783,-0.3030038524351557,0.6442398013093175,-0.30736610907951156,0.04603359232497884
-0.08488744767001576,-0.2727061433754881,0.35424769416526986,-0.19681033917610474,-0.006950632713001202,0.5950229980037632,-0.27200235077819035,0.03794086690863883
-0.20141205616899585,0.22229911412006206,0.501040522959041,-0.2044341395027508,0.15678981438197068,0.3496370050546792,-0.23559415170292847,0.057165658450947794
-0.1376342749070473,0.7499184643124187,0.5317415268626671,-0.21016623459391637,0.18105146812056339,-0.02060669703182201,-0.1965832095380652,0.08474899554186544
0.04745176587317311,1.1278852168595848,0.40121007121438823,-0.20092229639165987,0.13109791508789026,-0.3998810048342678,-0.137205101771987,0.08899842111055283
0.24472060190054973,1.2057196510730555,0.10753793485991059,-0.16460133084310155,0.10000171143749816,-0.6737590254346241,-0.04168479098801287,0.04617452452295391
